OOIBase32 Version 1.0.0.8 Data File
++++++++++++++++++++++++++++++++++++
Date: Wednesday, January 16, 1980, 02:36:33
User: Valued Ocean Optics Customer
Spectrometer Serial Number: Unknown
Spectrometer Channel: Master
Integration Time (msec): 3
Spectra Averaged: 10
Boxcar Smoothing: 0
Correct for Electrical Dark: Disabled
Time Normalized: Disabled
Dual-beam Reference: Disabled
Reference Channel: Master
>>>>>Begin Spectral Data<<<<<
179.00	0.0000
179.38	0.0000
179.75	70.7000
180.13	70.9000
180.51	70.3000
180.88	72.0000
181.26	70.4000
181.64	70.1000
182.02	72.0000
182.39	71.3000
182.77	71.8000
183.15	71.7000
183.52	70.4000
183.90	70.6000
184.28	70.4000
184.65	70.6000
185.03	69.5000
185.41	70.0000
185.78	70.7000
186.16	71.5000
186.53	71.4000
186.91	71.9000
187.29	72.4000
187.66	71.2000
188.04	71.3000
188.42	71.4000
188.79	69.9000
189.17	71.6000
189.55	71.1000
189.92	71.5000
190.30	71.6000
190.67	71.4000
191.05	71.6000
191.43	69.8000
191.80	70.7000
192.18	71.5000
192.56	72.2000
192.93	72.5000
193.31	72.6000
193.68	71.4000
194.06	72.2000
194.44	72.5000
194.81	71.5000
195.19	70.7000
195.56	71.4000
195.94	71.5000
196.32	73.4000
196.69	73.2000
197.07	71.9000
197.44	71.7000
197.82	72.0000
198.19	71.6000
198.57	71.4000
198.95	72.0000
199.32	71.6000
199.70	72.3000
200.07	71.4000
200.45	71.5000
200.82	70.8000
201.20	71.5000
201.57	70.9000
201.95	71.7000
202.33	69.9000
202.70	71.8000
203.08	71.6000
203.45	71.9000
203.83	71.8000
204.20	72.5000
204.58	71.7000
204.95	72.5000
205.33	70.4000
205.70	71.7000
206.08	71.4000
206.45	71.5000
206.83	71.7000
207.20	70.9000
207.58	72.0000
207.95	71.3000
208.33	72.7000
208.70	71.9000
209.08	72.6000
209.45	70.4000
209.83	72.0000
210.20	69.5000
210.58	71.3000
210.95	71.6000
211.33	73.2000
211.70	72.4000
212.08	72.2000
212.45	71.5000
212.83	71.1000
213.20	71.6000
213.58	70.9000
213.95	72.3000
214.33	71.5000
214.70	71.9000
215.07	71.5000
215.45	71.3000
215.82	72.4000
216.20	71.7000
216.57	70.0000
216.95	71.7000
217.32	72.2000
217.70	72.8000
218.07	72.1000
218.44	71.6000
218.82	71.2000
219.19	71.8000
219.57	70.9000
219.94	71.5000
220.32	71.8000
220.69	72.6000
221.06	72.6000
221.44	72.9000
221.81	71.7000
222.19	72.7000
222.56	70.1000
222.93	72.2000
223.31	70.2000
223.68	72.9000
224.06	71.5000
224.43	72.2000
224.80	70.9000
225.18	70.7000
225.55	72.5000
225.92	72.0000
226.30	69.6000
226.67	71.5000
227.05	71.3000
227.42	73.2000
227.79	71.1000
228.17	72.5000
228.54	72.5000
228.91	70.0000
229.29	72.1000
229.66	70.7000
230.03	70.4000
230.41	71.2000
230.78	72.6000
231.15	72.0000
231.53	70.9000
231.90	72.2000
232.27	71.5000
232.65	70.6000
233.02	71.5000
233.39	71.1000
233.77	71.5000
234.14	72.7000
234.51	73.1000
234.89	71.7000
235.26	70.3000
235.63	71.9000
236.01	71.3000
236.38	71.6000
236.75	70.6000
237.12	72.3000
237.50	70.8000
237.87	73.4000
238.24	71.8000
238.62	72.8000
238.99	72.0000
239.36	72.2000
239.73	72.3000
240.11	70.7000
240.48	71.8000
240.85	71.7000
241.23	71.3000
241.60	72.8000
241.97	72.2000
242.34	71.7000
242.72	71.8000
243.09	71.5000
243.46	71.9000
243.83	71.6000
244.21	71.3000
244.58	70.9000
244.95	72.8000
245.32	73.6000
245.70	73.1000
246.07	71.5000
246.44	70.9000
246.81	71.5000
247.18	72.2000
247.56	71.3000
247.93	70.7000
248.30	70.7000
248.67	72.5000
249.04	72.8000
249.42	71.7000
249.79	72.4000
250.16	71.6000
250.53	71.6000
250.90	70.8000
251.28	71.3000
251.65	72.2000
252.02	72.6000
252.39	72.6000
252.76	71.9000
253.14	72.8000
253.51	72.4000
253.88	72.7000
254.25	71.8000
254.62	71.3000
254.99	71.5000
255.37	71.8000
255.74	72.2000
256.11	72.9000
256.48	71.9000
256.85	72.5000
257.22	71.3000
257.59	71.9000
257.97	72.0000
258.34	71.2000
258.71	73.2000
259.08	71.1000
259.45	70.3000
259.82	73.1000
260.19	72.2000
260.56	72.3000
260.94	70.7000
261.31	70.8000
261.68	72.5000
262.05	72.0000
262.42	74.3000
262.79	72.9000
263.16	72.3000
263.53	72.7000
263.90	70.5000
264.28	70.4000
264.65	72.5000
265.02	71.1000
265.39	70.9000
265.76	73.2000
266.13	71.5000
266.50	72.4000
266.87	70.5000
267.24	71.8000
267.61	71.8000
267.98	72.3000
268.35	71.4000
268.72	72.3000
269.09	73.9000
269.46	71.5000
269.84	71.3000
270.21	72.0000
270.58	72.1000
270.95	71.1000
271.32	70.1000
271.69	71.0000
272.06	72.3000
272.43	71.1000
272.80	71.4000
273.17	71.9000
273.54	71.8000
273.91	72.7000
274.28	72.1000
274.65	71.5000
275.02	71.9000
275.39	71.5000
275.76	73.6000
276.13	71.7000
276.50	71.0000
276.87	71.4000
277.24	71.5000
277.61	73.0000
277.98	70.6000
278.35	71.5000
278.72	72.2000
279.09	71.7000
279.46	71.4000
279.83	72.4000
280.20	73.8000
280.57	73.5000
280.94	72.0000
281.31	70.0000
281.67	71.0000
282.04	70.7000
282.41	72.0000
282.78	72.6000
283.15	73.2000
283.52	72.1000
283.89	72.3000
284.26	71.0000
284.63	70.5000
285.00	71.6000
285.37	72.6000
285.74	72.2000
286.11	72.5000
286.48	70.9000
286.85	71.6000
287.21	72.1000
287.58	72.1000
287.95	72.4000
288.32	72.3000
288.69	71.1000
289.06	71.5000
289.43	72.7000
289.80	71.6000
290.17	71.8000
290.54	71.3000
290.90	71.2000
291.27	70.9000
291.64	71.6000
292.01	70.7000
292.38	72.9000
292.75	73.8000
293.12	72.9000
293.48	72.4000
293.85	71.6000
294.22	71.6000
294.59	71.4000
294.96	72.3000
295.33	71.8000
295.70	72.5000
296.06	72.9000
296.43	72.8000
296.80	73.1000
297.17	72.9000
297.54	71.5000
297.91	70.9000
298.27	70.9000
298.64	71.4000
299.01	70.3000
299.38	72.6000
299.75	73.2000
300.11	73.5000
300.48	72.1000
300.85	71.5000
301.22	70.5000
301.59	72.6000
301.95	71.2000
302.32	73.7000
302.69	71.5000
303.06	72.9000
303.43	73.1000
303.79	71.6000
304.16	71.6000
304.53	72.2000
304.90	71.6000
305.26	69.5000
305.63	71.8000
306.00	70.8000
306.37	71.9000
306.73	72.6000
307.10	71.6000
307.47	71.1000
307.84	71.9000
308.20	71.9000
308.57	71.8000
308.94	71.9000
309.31	70.8000
309.67	72.7000
310.04	71.2000
310.41	71.2000
310.77	72.7000
311.14	73.3000
311.51	72.7000
311.88	72.6000
312.24	70.8000
312.61	70.5000
312.98	70.5000
313.34	72.2000
313.71	73.5000
314.08	73.5000
314.44	72.9000
314.81	72.6000
315.18	71.6000
315.55	71.4000
315.91	70.8000
316.28	71.3000
316.65	71.5000
317.01	73.3000
317.38	74.4000
317.75	73.2000
318.11	72.1000
318.48	72.6000
318.84	70.8000
319.21	71.3000
319.58	72.0000
319.94	71.7000
320.31	72.3000
320.68	73.3000
321.04	71.8000
321.41	71.4000
321.78	70.6000
322.14	70.9000
322.51	71.1000
322.87	72.1000
323.24	72.3000
323.61	73.2000
323.97	73.6000
324.34	72.7000
324.70	73.4000
325.07	73.3000
325.44	71.2000
325.80	70.3000
326.17	70.9000
326.53	72.3000
326.90	73.6000
327.27	71.9000
327.63	73.7000
328.00	71.8000
328.36	72.1000
328.73	72.2000
329.09	71.0000
329.46	72.0000
329.83	71.5000
330.19	72.6000
330.56	71.2000
330.92	73.0000
331.29	73.0000
331.65	70.2000
332.02	71.6000
332.38	71.1000
332.75	71.7000
333.11	71.5000
333.48	72.7000
333.84	70.9000
334.21	71.4000
334.58	71.7000
334.94	72.6000
335.31	72.5000
335.67	71.0000
336.04	72.4000
336.40	71.2000
336.77	71.4000
337.13	72.0000
337.50	72.9000
337.86	70.3000
338.22	72.2000
338.59	71.7000
338.95	71.9000
339.32	72.6000
339.68	71.3000
340.05	71.5000
340.41	70.8000
340.78	71.3000
341.14	71.3000
341.51	71.7000
341.87	71.7000
342.24	71.4000
342.60	71.0000
342.96	71.1000
343.33	71.7000
343.69	70.9000
344.06	72.4000
344.42	71.4000
344.79	71.7000
345.15	70.5000
345.51	71.2000
345.88	72.1000
346.24	70.6000
346.61	70.6000
346.97	71.1000
347.34	72.1000
347.70	71.3000
348.06	71.7000
348.43	71.5000
348.79	71.0000
349.16	72.5000
349.52	71.4000
349.88	71.6000
350.25	70.6000
350.61	71.7000
350.97	72.3000
351.34	71.8000
351.70	71.5000
352.07	70.8000
352.43	71.1000
352.79	71.4000
353.16	70.7000
353.52	71.2000
353.88	71.8000
354.25	71.6000
354.61	73.2000
354.97	70.6000
355.34	71.4000
355.70	71.0000
356.06	70.7000
356.43	72.3000
356.79	71.8000
357.15	70.8000
357.52	73.3000
357.88	71.2000
358.24	72.3000
358.60	71.0000
358.97	70.8000
359.33	70.2000
359.69	70.5000
360.06	70.6000
360.42	72.2000
360.78	72.1000
361.14	70.0000
361.51	72.9000
361.87	71.9000
362.23	71.4000
362.60	70.6000
362.96	70.5000
363.32	71.7000
363.68	71.6000
364.05	71.7000
364.41	72.1000
364.77	72.9000
365.13	72.1000
365.50	71.2000
365.86	70.7000
366.22	71.9000
366.58	71.4000
366.95	72.6000
367.31	72.1000
367.67	71.8000
368.03	72.0000
368.39	72.4000
368.76	72.0000
369.12	72.2000
369.48	71.4000
369.84	71.4000
370.20	70.1000
370.57	71.7000
370.93	71.3000
371.29	71.9000
371.65	71.8000
372.01	70.3000
372.38	72.1000
372.74	71.9000
373.10	71.1000
373.46	70.9000
373.82	71.9000
374.18	72.9000
374.55	73.2000
374.91	72.0000
375.27	73.5000
375.63	71.8000
375.99	70.5000
376.35	71.6000
376.71	70.9000
377.08	72.9000
377.44	71.9000
377.80	72.4000
378.16	72.4000
378.52	71.5000
378.88	72.6000
379.24	72.3000
379.60	72.5000
379.97	71.6000
380.33	72.4000
380.69	70.5000
381.05	71.7000
381.41	73.0000
381.77	71.5000
382.13	70.6000
382.49	72.1000
382.85	71.3000
383.21	72.2000
383.57	71.0000
383.94	71.8000
384.30	72.1000
384.66	72.2000
385.02	72.6000
385.38	73.2000
385.74	71.5000
386.10	70.8000
386.46	71.2000
386.82	72.1000
387.18	72.2000
387.54	74.8000
387.90	72.0000
388.26	71.4000
388.62	71.6000
388.98	72.6000
389.34	71.7000
389.70	71.6000
390.06	71.0000
390.42	71.4000
390.78	71.9000
391.14	71.1000
391.50	71.4000
391.86	71.6000
392.22	71.4000
392.58	73.3000
392.94	71.7000
393.30	71.0000
393.66	71.7000
394.02	71.7000
394.38	71.3000
394.74	73.1000
395.10	70.1000
395.46	70.1000
395.82	72.7000
396.18	71.6000
396.54	70.7000
396.90	69.9000
397.26	69.9000
397.62	73.1000
397.98	71.1000
398.34	71.4000
398.70	70.9000
399.05	72.7000
399.41	70.6000
399.77	71.0000
400.13	72.8000
400.49	72.1000
400.85	72.8000
401.21	72.4000
401.57	72.5000
401.93	71.6000
402.29	71.8000
402.65	72.7000
403.00	72.6000
403.36	72.2000
403.72	72.7000
404.08	71.6000
404.44	72.3000
404.80	73.5000
405.16	72.6000
405.52	71.0000
405.87	71.8000
406.23	71.8000
406.59	72.6000
406.95	72.5000
407.31	71.5000
407.67	74.2000
408.03	71.7000
408.38	71.5000
408.74	70.5000
409.10	71.5000
409.46	70.3000
409.82	71.5000
410.17	72.4000
410.53	71.8000
410.89	71.8000
411.25	72.3000
411.61	73.1000
411.97	71.5000
412.32	70.4000
412.68	71.5000
413.04	71.0000
413.40	70.7000
413.75	71.4000
414.11	73.1000
414.47	71.8000
414.83	73.0000
415.19	71.9000
415.54	70.5000
415.90	71.0000
416.26	71.9000
416.62	71.6000
416.97	70.8000
417.33	70.7000
417.69	70.8000
418.05	72.1000
418.40	71.6000
418.76	70.9000
419.12	73.7000
419.48	72.8000
419.83	71.6000
420.19	71.7000
420.55	72.8000
420.90	72.6000
421.26	71.9000
421.62	72.6000
421.98	71.9000
422.33	70.6000
422.69	71.2000
423.05	71.4000
423.40	71.1000
423.76	72.2000
424.12	71.7000
424.47	72.4000
424.83	73.9000
425.19	71.4000
425.54	72.4000
425.90	71.3000
426.26	70.6000
426.61	71.8000
426.97	72.6000
427.33	72.2000
427.68	73.2000
428.04	72.3000
428.40	73.0000
428.75	73.1000
429.11	71.7000
429.47	72.2000
429.82	72.3000
430.18	73.0000
430.53	72.7000
430.89	73.2000
431.25	70.6000
431.60	72.3000
431.96	71.0000
432.31	71.8000
432.67	71.1000
433.03	71.0000
433.38	72.0000
433.74	72.4000
434.09	70.4000
434.45	71.9000
434.81	71.4000
435.16	72.5000
435.52	72.1000
435.87	72.6000
436.23	72.7000
436.58	71.0000
436.94	71.8000
437.30	71.7000
437.65	71.4000
438.01	72.0000
438.36	74.1000
438.72	72.1000
439.07	73.4000
439.43	71.0000
439.78	71.8000
440.14	71.9000
440.49	72.5000
440.85	73.2000
441.20	73.1000
441.56	71.6000
441.91	72.2000
442.27	72.3000
442.62	72.0000
442.98	73.2000
443.33	71.1000
443.69	72.7000
444.04	74.4000
444.40	73.8000
444.75	74.2000
445.11	73.8000
445.46	71.1000
445.82	71.3000
446.17	72.0000
446.53	71.2000
446.88	73.2000
447.23	73.4000
447.59	72.9000
447.94	73.4000
448.30	72.9000
448.65	73.4000
449.01	73.1000
449.36	71.5000
449.72	72.7000
450.07	73.9000
450.42	72.2000
450.78	72.8000
451.13	72.6000
451.49	73.5000
451.84	70.5000
452.19	73.0000
452.55	70.7000
452.90	72.1000
453.26	73.3000
453.61	71.6000
453.96	71.9000
454.32	73.3000
454.67	73.5000
455.02	74.3000
455.38	72.9000
455.73	72.9000
456.09	73.8000
456.44	73.7000
456.79	71.6000
457.15	72.8000
457.50	73.2000
457.85	72.1000
458.21	73.0000
458.56	72.0000
458.91	71.2000
459.27	71.2000
459.62	72.6000
459.97	73.7000
460.32	73.1000
460.68	73.7000
461.03	71.9000
461.38	71.7000
461.74	72.4000
462.09	71.6000
462.44	71.8000
462.80	70.5000
463.15	72.1000
463.50	72.6000
463.85	73.3000
464.21	74.3000
464.56	72.4000
464.91	70.0000
465.26	70.9000
465.62	71.1000
465.97	72.2000
466.32	71.5000
466.67	72.8000
467.03	72.1000
467.38	73.1000
467.73	71.7000
468.08	70.3000
468.44	73.2000
468.79	73.3000
469.14	72.8000
469.49	71.4000
469.85	71.9000
470.20	72.6000
470.55	72.1000
470.90	72.0000
471.25	71.9000
471.61	72.4000
471.96	71.1000
472.31	71.3000
472.66	72.1000
473.01	72.6000
473.36	71.3000
473.72	72.2000
474.07	72.6000
474.42	72.8000
474.77	70.4000
475.12	71.1000
475.47	72.1000
475.83	72.8000
476.18	70.8000
476.53	71.5000
476.88	72.1000
477.23	72.2000
477.58	74.0000
477.93	72.8000
478.28	73.6000
478.64	71.4000
478.99	71.1000
479.34	71.0000
479.69	72.0000
480.04	72.0000
480.39	72.3000
480.74	72.6000
481.09	71.5000
481.44	71.0000
481.79	71.7000
482.15	72.1000
482.50	71.9000
482.85	72.8000
483.20	73.9000
483.55	73.7000
483.90	72.0000
484.25	71.6000
484.60	72.7000
484.95	73.2000
485.30	71.2000
485.65	72.7000
486.00	73.3000
486.35	72.7000
486.70	72.3000
487.05	71.1000
487.40	71.4000
487.75	71.9000
488.10	72.1000
488.45	72.5000
488.80	72.2000
489.15	71.2000
489.50	73.1000
489.85	72.7000
490.20	72.5000
490.55	72.8000
490.90	72.0000
491.25	71.0000
491.60	72.0000
491.95	73.0000
492.30	72.3000
492.65	74.4000
493.00	73.3000
493.35	73.1000
493.70	71.9000
494.05	73.3000
494.40	72.3000
494.75	72.6000
495.10	71.3000
495.45	71.2000
495.80	70.7000
496.15	72.3000
496.50	74.0000
496.84	71.0000
497.19	72.6000
497.54	71.9000
497.89	72.4000
498.24	71.9000
498.59	72.5000
498.94	73.1000
499.29	72.7000
499.64	72.4000
499.99	73.3000
500.33	73.0000
500.68	72.8000
501.03	71.6000
501.38	71.9000
501.73	73.9000
502.08	71.9000
502.43	73.0000
502.77	73.1000
503.12	74.0000
503.47	74.0000
503.82	72.0000
504.17	71.5000
504.52	72.5000
504.86	71.6000
505.21	72.9000
505.56	71.8000
505.91	72.3000
506.26	71.8000
506.61	73.8000
506.95	72.0000
507.30	71.5000
507.65	73.0000
508.00	72.8000
508.35	72.5000
508.69	72.5000
509.04	72.4000
509.39	73.8000
509.74	73.0000
510.08	72.1000
510.43	72.0000
510.78	70.8000
511.13	72.6000
511.47	72.7000
511.82	71.9000
512.17	72.1000
512.52	72.5000
512.86	73.8000
513.21	72.8000
513.56	72.6000
513.91	72.6000
514.25	71.6000
514.60	74.1000
514.95	74.1000
515.30	73.6000
515.64	74.2000
515.99	72.1000
516.34	73.7000
516.68	72.5000
517.03	72.4000
517.38	72.5000
517.72	72.0000
518.07	71.9000
518.42	72.5000
518.76	72.2000
519.11	72.9000
519.46	73.5000
519.80	72.8000
520.15	71.6000
520.50	72.3000
520.84	72.8000
521.19	71.8000
521.54	73.2000
521.88	73.3000
522.23	74.1000
522.58	73.1000
522.92	73.6000
523.27	72.0000
523.61	71.7000
523.96	73.0000
524.31	72.3000
524.65	71.9000
525.00	74.4000
525.34	74.1000
525.69	73.4000
526.04	73.8000
526.38	71.1000
526.73	72.3000
527.07	71.6000
527.42	72.1000
527.76	72.6000
528.11	73.4000
528.46	73.7000
528.80	72.9000
529.15	73.5000
529.49	73.4000
529.84	71.7000
530.18	73.5000
530.53	72.6000
530.87	73.6000
531.22	73.8000
531.56	71.9000
531.91	73.0000
532.25	74.1000
532.60	71.6000
532.94	71.5000
533.29	73.1000
533.63	72.1000
533.98	72.6000
534.32	74.1000
534.67	73.1000
535.01	72.9000
535.36	73.6000
535.70	72.8000
536.05	73.2000
536.39	73.3000
536.74	72.6000
537.08	70.9000
537.43	72.6000
537.77	73.7000
538.12	74.5000
538.46	72.4000
538.80	73.0000
539.15	72.6000
539.49	72.4000
539.84	73.3000
540.18	73.6000
540.53	73.7000
540.87	71.5000
541.21	73.6000
541.56	73.5000
541.90	72.2000
542.25	71.8000
542.59	73.6000
542.93	72.5000
543.28	72.7000
543.62	71.9000
543.97	73.4000
544.31	73.0000
544.65	72.4000
545.00	73.6000
545.34	72.6000
545.68	72.0000
546.03	73.4000
546.37	72.1000
546.71	73.3000
547.06	73.3000
547.40	72.3000
547.74	73.0000
548.09	72.7000
548.43	73.1000
548.77	72.3000
549.12	73.4000
549.46	72.0000
549.80	71.7000
550.15	72.5000
550.49	73.2000
550.83	73.6000
551.17	72.8000
551.52	73.4000
551.86	72.0000
552.20	72.2000
552.55	71.0000
552.89	72.2000
553.23	73.0000
553.57	74.1000
553.92	73.4000
554.26	72.3000
554.60	73.9000
554.94	72.5000
555.29	73.3000
555.63	73.8000
555.97	72.5000
556.31	73.8000
556.66	74.1000
557.00	73.2000
557.34	72.4000
557.68	73.5000
558.02	74.2000
558.37	71.6000
558.71	71.6000
559.05	71.5000
559.39	71.7000
559.73	73.6000
560.08	74.4000
560.42	73.3000
560.76	73.2000
561.10	73.7000
561.44	73.8000
561.78	73.3000
562.13	72.9000
562.47	71.7000
562.81	72.0000
563.15	73.0000
563.49	73.7000
563.83	72.3000
564.17	72.7000
564.52	72.7000
564.86	72.0000
565.20	72.5000
565.54	73.2000
565.88	73.0000
566.22	72.9000
566.56	74.4000
566.90	73.5000
567.24	73.2000
567.59	74.0000
567.93	72.9000
568.27	71.9000
568.61	72.9000
568.95	71.5000
569.29	72.3000
569.63	74.5000
569.97	72.9000
570.31	73.2000
570.65	73.0000
570.99	73.3000
571.33	74.1000
571.67	72.4000
572.01	71.0000
572.35	73.5000
572.69	72.8000
573.03	74.3000
573.37	74.8000
573.71	74.8000
574.05	71.8000
574.39	73.5000
574.73	71.8000
575.07	72.0000
575.41	72.6000
575.75	72.8000
576.09	74.7000
576.43	72.5000
576.77	74.1000
577.11	74.1000
577.45	72.5000
577.79	72.5000
578.13	73.5000
578.47	72.4000
578.81	72.9000
579.15	72.1000
579.49	73.2000
579.83	73.1000
580.17	73.7000
580.51	72.4000
580.85	72.8000
581.19	72.1000
581.53	72.4000
581.87	73.8000
582.20	73.5000
582.54	72.2000
582.88	72.8000
583.22	71.9000
583.56	73.0000
583.90	72.9000
584.24	73.9000
584.58	72.5000
584.92	72.5000
585.25	72.1000
585.59	73.3000
585.93	72.2000
586.27	73.2000
586.61	71.6000
586.95	73.1000
587.29	71.6000
587.62	71.4000
587.96	72.4000
588.30	73.2000
588.64	73.1000
588.98	72.7000
589.31	72.1000
589.65	71.9000
589.99	72.0000
590.33	71.2000
590.67	71.3000
591.01	73.0000
591.34	72.1000
591.68	75.1000
592.02	72.3000
592.36	72.0000
592.69	71.0000
593.03	71.5000
593.37	70.8000
593.71	71.4000
594.04	71.8000
594.38	72.0000
594.72	73.7000
595.06	74.4000
595.39	75.2000
595.73	73.0000
596.07	71.3000
596.41	71.4000
596.74	75.1000
597.08	73.5000
597.42	69.1000
597.76	72.1000
598.09	72.5000
598.43	73.1000
598.77	72.3000
599.10	72.7000
599.44	72.6000
599.78	71.4000
600.11	71.0000
600.45	73.0000
600.79	72.1000
601.12	73.3000
601.46	74.5000
601.80	72.6000
602.13	74.1000
602.47	73.4000
602.81	72.0000
603.14	72.0000
603.48	71.8000
603.82	72.4000
604.15	71.8000
604.49	72.5000
604.82	72.4000
605.16	72.5000
605.50	72.6000
605.83	71.7000
606.17	72.1000
606.50	72.0000
606.84	72.9000
607.18	73.4000
607.51	72.7000
607.85	71.6000
608.18	72.9000
608.52	73.2000
608.86	71.6000
609.19	71.7000
609.53	71.9000
609.86	73.2000
610.20	71.4000
610.53	72.0000
610.87	71.2000
611.20	73.4000
611.54	72.6000
611.87	72.2000
612.21	72.9000
612.54	72.0000
612.88	74.0000
613.21	72.9000
613.55	72.2000
613.88	72.4000
614.22	72.1000
614.55	72.9000
614.89	72.7000
615.22	71.5000
615.56	72.3000
615.89	73.0000
616.23	71.9000
616.56	73.1000
616.90	71.8000
617.23	71.8000
617.57	73.4000
617.90	72.1000
618.24	72.2000
618.57	71.5000
618.90	72.7000
619.24	72.3000
619.57	73.9000
619.91	71.5000
620.24	72.1000
620.58	71.7000
620.91	73.5000
621.24	73.1000
621.58	70.8000
621.91	72.9000
622.25	72.5000
622.58	73.1000
622.91	72.5000
623.25	74.0000
623.58	72.6000
623.91	73.3000
624.25	71.6000
624.58	72.0000
624.92	71.8000
625.25	71.4000
625.58	74.1000
625.92	73.0000
626.25	71.9000
626.58	71.8000
626.92	72.8000
627.25	71.5000
627.58	73.0000
627.91	72.9000
628.25	71.1000
628.58	72.1000
628.91	71.7000
629.25	72.1000
629.58	72.6000
629.91	73.1000
630.25	72.7000
630.58	71.3000
630.91	72.6000
631.24	73.2000
631.58	73.4000
631.91	72.3000
632.24	71.8000
632.57	72.6000
632.91	71.9000
633.24	71.6000
633.57	72.7000
633.90	72.6000
634.24	71.6000
634.57	72.8000
634.90	72.8000
635.23	73.2000
635.56	72.1000
635.90	72.8000
636.23	72.2000
636.56	71.4000
636.89	72.7000
637.22	71.9000
637.56	72.6000
637.89	72.1000
638.22	74.4000
638.55	72.5000
638.88	72.5000
639.21	71.9000
639.55	71.5000
639.88	72.1000
640.21	70.9000
640.54	71.1000
640.87	71.4000
641.20	72.9000
641.53	71.9000
641.87	72.5000
642.20	71.9000
642.53	70.2000
642.86	70.7000
643.19	72.2000
643.52	72.8000
643.85	72.6000
644.18	71.1000
644.51	72.8000
644.84	71.7000
645.18	71.6000
645.51	74.1000
645.84	71.8000
646.17	72.1000
646.50	73.0000
646.83	72.8000
647.16	72.4000
647.49	72.7000
647.82	72.1000
648.15	72.8000
648.48	72.4000
648.81	71.9000
649.14	72.7000
649.47	72.0000
649.80	71.5000
650.13	73.9000
650.46	71.2000
650.79	72.4000
651.12	72.5000
651.45	72.0000
651.78	71.8000
652.11	71.9000
652.44	73.1000
652.77	72.0000
653.10	71.0000
653.43	71.3000
653.76	72.9000
654.09	72.7000
654.42	72.7000
654.75	70.8000
655.08	72.0000
655.41	72.9000
655.74	72.2000
656.07	72.7000
656.39	73.4000
656.72	71.7000
657.05	70.9000
657.38	71.0000
657.71	71.7000
658.04	70.9000
658.37	73.0000
658.70	70.6000
659.03	70.3000
659.36	72.4000
659.68	72.4000
660.01	71.9000
660.34	72.3000
660.67	73.1000
661.00	72.1000
661.33	71.7000
661.66	72.9000
661.98	70.6000
662.31	72.5000
662.64	72.2000
662.97	72.2000
663.30	72.0000
663.63	71.8000
663.95	70.6000
664.28	72.1000
664.61	70.4000
664.94	72.3000
665.27	73.2000
665.59	73.4000
665.92	71.7000
666.25	71.6000
666.58	71.2000
666.91	72.3000
667.23	71.5000
667.56	69.9000
667.89	70.3000
668.22	71.5000
668.54	72.5000
668.87	71.5000
669.20	72.4000
669.53	71.3000
669.85	72.2000
670.18	71.0000
670.51	71.6000
670.83	72.7000
671.16	71.5000
671.49	72.5000
671.82	72.6000
672.14	73.0000
672.47	71.0000
672.80	71.3000
673.12	70.4000
673.45	71.0000
673.78	71.4000
674.10	73.5000
674.43	73.8000
674.76	72.9000
675.08	71.2000
675.41	72.7000
675.74	73.0000
676.06	71.4000
676.39	71.6000
676.72	72.0000
677.04	72.5000
677.37	72.3000
677.69	72.3000
678.02	73.6000
678.35	71.4000
678.67	71.4000
679.00	71.5000
679.32	72.8000
679.65	70.5000
679.98	72.4000
680.30	71.6000
680.63	72.7000
680.95	72.7000
681.28	72.5000
681.60	71.2000
681.93	71.2000
682.26	70.9000
682.58	70.2000
682.91	71.4000
683.23	71.3000
683.56	73.7000
683.88	72.7000
684.21	72.7000
684.53	72.3000
684.86	71.5000
685.18	70.6000
685.51	69.1000
685.83	71.2000
686.16	71.8000
686.48	72.7000
686.81	72.0000
687.13	71.1000
687.46	71.9000
687.78	71.9000
688.11	72.3000
688.43	70.7000
688.76	70.6000
689.08	72.6000
689.41	72.7000
689.73	72.0000
690.05	71.2000
690.38	72.2000
690.70	71.8000
691.03	72.0000
691.35	71.2000
691.68	71.7000
692.00	71.1000
692.32	72.1000
692.65	71.5000
692.97	71.6000
693.29	73.7000
693.62	73.4000
693.94	72.5000
694.27	70.8000
694.59	71.9000
694.91	71.7000
695.24	72.5000
695.56	72.2000
695.88	71.4000
696.21	72.7000
696.53	72.3000
696.85	73.1000
697.18	71.9000
697.50	72.4000
697.82	70.5000
698.15	71.1000
698.47	72.9000
698.79	73.4000
699.12	72.7000
699.44	71.5000
699.76	73.6000
700.09	71.3000
700.41	71.2000
700.73	71.0000
701.05	70.2000
701.38	70.1000
701.70	71.6000
702.02	72.3000
702.34	72.2000
702.67	72.1000
702.99	72.1000
703.31	72.4000
703.63	70.7000
703.96	70.5000
704.28	72.8000
704.60	72.8000
704.92	72.3000
705.25	72.4000
705.57	71.8000
705.89	70.6000
706.21	71.4000
706.53	71.0000
706.86	71.4000
707.18	71.5000
707.50	70.7000
707.82	71.0000
708.14	71.4000
708.46	72.3000
708.79	71.3000
709.11	71.6000
709.43	71.6000
709.75	70.9000
710.07	72.3000
710.39	71.4000
710.71	71.1000
711.04	71.4000
711.36	71.9000
711.68	72.6000
712.00	72.5000
712.32	69.8000
712.64	70.8000
712.96	72.4000
713.28	73.5000
713.60	74.1000
713.92	71.8000
714.24	71.6000
714.57	73.2000
714.89	72.9000
715.21	71.6000
715.53	72.5000
715.85	70.5000
716.17	72.7000
716.49	72.4000
716.81	71.3000
717.13	71.8000
717.45	71.6000
717.77	72.1000
718.09	71.8000
718.41	72.1000
718.73	72.5000
719.05	71.5000
719.37	72.3000
719.69	72.3000
720.01	72.2000
720.33	72.0000
720.65	70.6000
720.97	70.2000
721.29	70.3000
721.61	72.2000
721.93	71.5000
722.25	71.7000
722.57	71.7000
722.89	72.8000
723.21	72.7000
723.52	73.4000
723.84	72.2000
724.16	71.4000
724.48	69.2000
724.80	71.1000
725.12	71.7000
725.44	72.9000
725.76	72.5000
726.08	72.7000
726.40	72.3000
726.72	71.9000
727.03	71.1000
727.35	71.1000
727.67	72.5000
727.99	70.9000
728.31	71.8000
728.63	70.6000
728.95	72.2000
729.26	71.7000
729.58	71.5000
729.90	71.6000
730.22	71.1000
730.54	71.1000
730.86	71.2000
731.17	71.5000
731.49	72.5000
731.81	71.0000
732.13	72.7000
732.45	71.8000
732.76	73.4000
733.08	70.7000
733.40	72.6000
733.72	71.8000
734.03	73.3000
734.35	72.2000
734.67	70.9000
734.99	73.2000
735.30	71.4000
735.62	73.1000
735.94	71.8000
736.26	72.0000
736.57	70.2000
736.89	72.2000
737.21	71.7000
737.53	71.8000
737.84	72.0000
738.16	72.4000
738.48	73.3000
738.79	72.7000
739.11	70.8000
739.43	69.2000
739.74	72.2000
740.06	71.2000
740.38	73.0000
740.69	73.4000
741.01	71.4000
741.33	70.5000
741.64	72.1000
741.96	69.9000
742.28	71.2000
742.59	71.0000
742.91	72.2000
743.23	71.7000
743.54	71.7000
743.86	71.1000
744.17	72.7000
744.49	71.8000
744.81	72.4000
745.12	71.8000
745.44	72.6000
745.75	71.1000
746.07	71.4000
746.38	71.7000
746.70	72.2000
747.02	71.3000
747.33	73.2000
747.65	72.2000
747.96	72.6000
748.28	70.6000
748.59	73.6000
748.91	72.6000
749.22	72.6000
749.54	71.0000
749.85	70.1000
750.17	72.5000
750.48	71.8000
750.80	70.9000
751.11	71.7000
751.43	72.0000
751.74	71.8000
752.06	72.3000
752.37	71.6000
752.69	71.7000
753.00	71.0000
753.32	71.6000
753.63	71.8000
753.95	71.7000
754.26	72.7000
754.58	73.3000
754.89	72.3000
755.20	71.9000
755.52	72.1000
755.83	71.5000
756.15	72.1000
756.46	72.2000
756.78	73.0000
757.09	71.3000
757.40	71.4000
757.72	72.6000
758.03	70.5000
758.34	71.7000
758.66	71.5000
758.97	70.4000
759.29	72.4000
759.60	71.2000
759.91	71.5000
760.23	70.3000
760.54	73.5000
760.85	72.7000
761.17	72.0000
761.48	72.2000
761.79	72.7000
762.11	72.6000
762.42	71.4000
762.73	71.6000
763.05	70.7000
763.36	71.7000
763.67	70.8000
763.98	73.1000
764.30	71.6000
764.61	72.6000
764.92	71.8000
765.23	73.0000
765.55	71.3000
765.86	72.8000
766.17	71.9000
766.48	72.6000
766.80	72.1000
767.11	71.3000
767.42	72.1000
767.73	72.5000
768.05	71.3000
768.36	73.5000
768.67	71.7000
768.98	71.8000
769.29	72.6000
769.61	73.2000
769.92	72.6000
770.23	70.7000
770.54	71.0000
770.85	71.6000
771.17	71.2000
771.48	70.7000
771.79	71.4000
772.10	72.1000
772.41	72.3000
772.72	71.6000
773.03	71.6000
773.35	70.4000
773.66	72.1000
773.97	70.8000
774.28	71.5000
774.59	73.6000
774.90	74.2000
775.21	72.6000
775.52	72.8000
775.83	72.7000
776.15	72.5000
776.46	72.2000
776.77	72.6000
777.08	72.1000
777.39	72.4000
777.70	73.1000
778.01	71.7000
778.32	73.1000
778.63	72.4000
778.94	71.6000
779.25	71.9000
779.56	72.6000
779.87	72.9000
780.18	72.3000
780.49	72.9000
780.80	72.4000
781.11	71.9000
781.42	70.5000
781.73	71.0000
782.04	71.6000
782.35	72.6000
782.66	71.3000
782.97	71.8000
783.28	72.5000
783.59	72.1000
783.90	71.4000
784.21	71.4000
784.52	71.9000
784.83	73.2000
785.14	72.2000
785.45	71.6000
785.76	70.2000
786.06	73.1000
786.37	72.0000
786.68	72.4000
786.99	72.8000
787.30	70.7000
787.61	70.4000
787.92	69.3000
788.23	70.9000
788.54	71.8000
788.84	71.7000
789.15	71.1000
789.46	70.7000
789.77	72.3000
790.08	72.2000
790.39	72.1000
790.70	73.8000
791.00	71.7000
791.31	72.8000
791.62	71.0000
791.93	72.4000
792.24	71.6000
792.54	71.6000
792.85	73.5000
793.16	73.6000
793.47	72.2000
793.78	72.1000
794.08	71.7000
794.39	72.9000
794.70	72.4000
795.01	72.9000
795.31	72.6000
795.62	72.4000
795.93	72.8000
796.24	72.4000
796.54	72.0000
796.85	72.7000
797.16	72.8000
797.47	73.5000
797.77	72.2000
798.08	71.2000
798.39	71.0000
798.69	71.0000
799.00	72.0000
799.31	71.3000
799.62	72.0000
799.92	71.4000
800.23	72.4000
800.54	71.5000
800.84	71.6000
801.15	72.2000
801.46	71.2000
801.76	71.4000
802.07	72.3000
802.37	70.6000
802.68	69.9000
802.99	71.8000
803.29	72.8000
803.60	71.5000
803.91	73.5000
804.21	71.8000
804.52	71.7000
804.82	71.7000
805.13	70.8000
805.44	71.7000
805.74	71.3000
806.05	72.1000
806.35	70.4000
806.66	70.9000
806.96	72.5000
807.27	73.1000
807.57	70.9000
807.88	70.6000
808.19	71.4000
808.49	71.2000
808.80	71.8000
809.10	72.0000
809.41	72.3000
809.71	72.2000
810.02	72.4000
810.32	72.8000
810.63	71.2000
810.93	70.4000
811.24	71.7000
811.54	72.8000
811.85	70.6000
812.15	72.9000
812.45	72.2000
812.76	71.8000
813.06	72.6000
813.37	70.5000
813.67	71.8000
813.98	71.1000
814.28	71.6000
814.58	71.1000
814.89	73.5000
815.19	72.6000
815.50	71.1000
815.80	70.4000
816.11	70.5000
816.41	70.0000
816.71	70.8000
817.02	71.1000
817.32	71.1000
817.62	72.1000
817.93	73.1000
818.23	72.3000
818.53	73.1000
818.84	71.9000
819.14	71.0000
819.44	71.6000
819.75	70.8000
820.05	73.8000
820.35	71.3000
820.66	69.7000
820.96	71.3000
821.26	69.6000
821.57	71.9000
821.87	73.1000
822.17	71.3000
822.48	72.5000
822.78	73.7000
823.08	72.6000
823.38	71.7000
823.69	71.4000
823.99	72.0000
824.29	71.5000
824.59	72.3000
824.90	71.1000
825.20	72.2000
825.50	70.4000
825.80	70.9000
826.10	72.4000
826.41	71.9000
826.71	72.0000
827.01	72.3000
827.31	72.0000
827.61	71.5000
827.92	72.6000
828.22	72.0000
828.52	71.7000
828.82	71.5000
829.12	72.8000
829.42	72.0000
829.73	71.4000
830.03	71.2000
830.33	71.0000
830.63	70.8000
830.93	71.1000
831.23	71.5000
831.53	73.1000
831.83	72.2000
832.14	73.1000
832.44	71.5000
832.74	71.0000
833.04	70.7000
833.34	71.8000
833.64	73.3000
833.94	71.0000
834.24	71.5000
834.54	70.3000
834.84	71.3000
835.14	71.3000
835.44	71.3000
835.74	72.1000
836.04	73.4000
836.34	73.0000
836.64	71.0000
836.95	72.2000
837.25	72.1000
837.55	71.6000
837.85	72.9000
838.15	70.1000
838.45	71.0000
838.74	69.9000
839.04	71.7000
839.34	71.0000
839.64	72.5000
839.94	72.3000
840.24	72.0000
840.54	71.3000
840.84	71.9000
841.14	71.4000
841.44	71.7000
841.74	71.7000
842.04	72.2000
842.34	72.7000
842.64	72.4000
842.94	72.9000
843.24	71.8000
843.53	71.9000
843.83	70.7000
844.13	71.7000
844.43	71.8000
844.73	72.5000
845.03	71.4000
845.33	71.3000
845.63	71.5000
845.92	71.7000
846.22	74.0000
846.52	72.6000
846.82	70.5000
847.12	71.8000
847.42	68.9000
847.71	70.4000
848.01	70.9000
848.31	72.7000
848.61	74.7000
848.91	72.2000
849.20	71.4000
849.50	70.0000
849.80	72.6000
850.10	70.7000
850.39	71.1000
850.69	70.7000
850.99	73.0000
851.29	71.5000
851.59	72.3000
851.88	71.7000
852.18	71.8000
852.48	69.1000
852.77	70.2000
853.07	70.8000
853.37	71.9000
853.67	72.5000
853.96	72.4000
854.26	72.6000
854.56	73.1000
854.85	71.5000
855.15	72.0000
855.45	70.8000
855.74	70.9000
856.04	71.0000
856.34	71.4000
856.63	71.7000
856.93	70.9000
857.23	70.9000
857.52	72.6000
857.82	70.2000
858.11	70.2000
858.41	71.1000
858.71	71.2000
859.00	71.1000
859.30	71.7000
859.59	71.7000
859.89	72.7000
860.19	72.2000
860.48	71.0000
860.78	72.0000
861.07	71.6000
861.37	71.3000
861.66	71.9000
861.96	72.1000
862.26	72.6000
862.55	72.2000
862.85	72.3000
863.14	73.6000
863.44	70.9000
863.73	71.8000
864.03	70.5000
864.32	72.3000
864.62	73.0000
864.91	72.4000
865.21	74.2000
865.50	69.5000
865.80	70.4000
866.09	72.0000
866.39	71.3000
866.68	71.6000
866.97	71.8000
867.27	70.6000
867.56	72.4000
867.86	73.4000
868.15	72.4000
868.45	70.7000
868.74	72.7000
869.03	71.7000
869.33	71.8000
869.62	72.9000
869.92	72.1000
870.21	71.5000
870.50	73.4000
870.80	71.8000
871.09	73.0000
871.39	71.5000
871.68	71.7000
871.97	70.5000
872.27	71.1000
872.56	72.4000
872.85	72.8000
873.15	72.4000
873.44	72.4000
873.73	70.4000
874.03	71.5000
874.32	72.2000
874.61	70.7000
874.90	71.1000
875.20	70.3000
875.49	71.9000
875.78	72.1000