OOIBase32 Version 1.0.0.8 Data File
++++++++++++++++++++++++++++++++++++
Date: Wednesday, January 16, 1980, 02:40:58
User: Valued Ocean Optics Customer
Spectrometer Serial Number: Unknown
Spectrometer Channel: Master
Integration Time (msec): 3
Spectra Averaged: 10
Boxcar Smoothing: 0
Correct for Electrical Dark: Disabled
Time Normalized: Disabled
Dual-beam Reference: Disabled
Reference Channel: Master
>>>>>Begin Spectral Data<<<<<
179.00	0.0000
179.38	0.0000
179.75	70.3000
180.13	68.8000
180.51	71.0000
180.88	72.4000
181.26	70.6000
181.64	70.9000
182.02	71.0000
182.39	69.9000
182.77	71.4000
183.15	70.2000
183.52	70.7000
183.90	71.9000
184.28	70.3000
184.65	71.5000
185.03	70.9000
185.41	71.2000
185.78	71.8000
186.16	70.8000
186.53	69.4000
186.91	72.0000
187.29	70.9000
187.66	71.7000
188.04	71.2000
188.42	72.1000
188.79	72.9000
189.17	72.9000
189.55	69.7000
189.92	72.8000
190.30	71.7000
190.67	72.3000
191.05	72.5000
191.43	73.3000
191.80	72.7000
192.18	71.2000
192.56	72.6000
192.93	72.0000
193.31	71.2000
193.68	72.9000
194.06	71.9000
194.44	71.0000
194.81	73.3000
195.19	72.3000
195.56	73.0000
195.94	72.2000
196.32	71.3000
196.69	71.5000
197.07	71.1000
197.44	70.9000
197.82	72.8000
198.19	74.5000
198.57	72.1000
198.95	74.6000
199.32	71.3000
199.70	72.3000
200.07	71.3000
200.45	70.8000
200.82	72.6000
201.20	71.1000
201.57	73.0000
201.95	72.4000
202.33	71.3000
202.70	72.9000
203.08	72.5000
203.45	72.1000
203.83	73.3000
204.20	73.1000
204.58	72.2000
204.95	72.8000
205.33	72.0000
205.70	72.5000
206.08	72.2000
206.45	72.8000
206.83	70.8000
207.20	70.5000
207.58	70.3000
207.95	71.2000
208.33	73.5000
208.70	74.1000
209.08	72.7000
209.45	72.4000
209.83	72.3000
210.20	73.1000
210.58	72.4000
210.95	71.7000
211.33	72.1000
211.70	72.9000
212.08	73.9000
212.45	72.4000
212.83	72.9000
213.20	73.0000
213.58	72.2000
213.95	72.6000
214.33	70.9000
214.70	71.8000
215.07	74.6000
215.45	73.3000
215.82	72.1000
216.20	72.7000
216.57	72.1000
216.95	71.5000
217.32	72.4000
217.70	71.9000
218.07	72.5000
218.44	72.5000
218.82	72.8000
219.19	72.8000
219.57	72.7000
219.94	71.0000
220.32	71.2000
220.69	71.4000
221.06	72.4000
221.44	71.9000
221.81	72.4000
222.19	72.3000
222.56	72.3000
222.93	71.9000
223.31	73.3000
223.68	71.2000
224.06	71.1000
224.43	73.0000
224.80	71.4000
225.18	71.7000
225.55	72.4000
225.92	72.5000
226.30	73.3000
226.67	73.2000
227.05	71.4000
227.42	73.1000
227.79	72.0000
228.17	71.5000
228.54	72.0000
228.91	74.3000
229.29	72.5000
229.66	73.2000
230.03	73.3000
230.41	73.2000
230.78	71.3000
231.15	72.6000
231.53	73.3000
231.90	74.0000
232.27	73.4000
232.65	74.2000
233.02	73.8000
233.39	73.6000
233.77	73.4000
234.14	72.5000
234.51	72.8000
234.89	74.5000
235.26	72.0000
235.63	71.3000
236.01	73.2000
236.38	72.9000
236.75	71.9000
237.12	72.9000
237.50	72.2000
237.87	70.5000
238.24	71.9000
238.62	72.2000
238.99	71.9000
239.36	74.1000
239.73	72.2000
240.11	73.5000
240.48	72.9000
240.85	73.6000
241.23	71.4000
241.60	70.9000
241.97	71.4000
242.34	71.9000
242.72	72.2000
243.09	73.1000
243.46	72.9000
243.83	72.8000
244.21	72.8000
244.58	73.4000
244.95	74.7000
245.32	70.8000
245.70	72.0000
246.07	72.5000
246.44	73.6000
246.81	72.8000
247.18	72.9000
247.56	72.4000
247.93	71.9000
248.30	72.6000
248.67	70.9000
249.04	72.1000
249.42	73.4000
249.79	72.5000
250.16	73.2000
250.53	72.2000
250.90	71.4000
251.28	72.3000
251.65	72.3000
252.02	73.1000
252.39	70.9000
252.76	71.9000
253.14	73.0000
253.51	73.1000
253.88	73.2000
254.25	72.1000
254.62	72.0000
254.99	72.7000
255.37	70.7000
255.74	72.6000
256.11	73.0000
256.48	72.9000
256.85	74.1000
257.22	73.5000
257.59	73.3000
257.97	74.1000
258.34	73.1000
258.71	73.0000
259.08	72.8000
259.45	72.1000
259.82	73.8000
260.19	73.0000
260.56	74.6000
260.94	75.0000
261.31	74.5000
261.68	74.8000
262.05	74.4000
262.42	74.2000
262.79	74.4000
263.16	74.7000
263.53	73.9000
263.90	74.4000
264.28	76.6000
264.65	74.9000
265.02	74.1000
265.39	75.3000
265.76	74.7000
266.13	74.5000
266.50	75.0000
266.87	75.5000
267.24	75.5000
267.61	76.5000
267.98	77.1000
268.35	76.8000
268.72	76.1000
269.09	75.3000
269.46	76.0000
269.84	77.2000
270.21	77.4000
270.58	77.1000
270.95	76.7000
271.32	78.3000
271.69	77.2000
272.06	76.7000
272.43	75.7000
272.80	76.9000
273.17	76.6000
273.54	78.7000
273.91	77.1000
274.28	78.8000
274.65	78.3000
275.02	78.0000
275.39	77.1000
275.76	78.7000
276.13	78.3000
276.50	77.1000
276.87	77.9000
277.24	79.2000
277.61	80.1000
277.98	80.7000
278.35	79.4000
278.72	78.3000
279.09	77.7000
279.46	79.2000
279.83	76.9000
280.20	78.9000
280.57	79.6000
280.94	78.4000
281.31	80.1000
281.67	79.7000
282.04	77.7000
282.41	78.3000
282.78	80.1000
283.15	77.6000
283.52	79.2000
283.89	81.3000
284.26	79.4000
284.63	79.3000
285.00	80.2000
285.37	80.1000
285.74	80.8000
286.11	80.1000
286.48	78.1000
286.85	80.6000
287.21	80.6000
287.58	80.8000
287.95	80.5000
288.32	81.7000
288.69	83.4000
289.06	81.1000
289.43	80.6000
289.80	81.6000
290.17	79.6000
290.54	81.0000
290.90	82.2000
291.27	82.0000
291.64	81.7000
292.01	82.8000
292.38	82.5000
292.75	81.2000
293.12	81.2000
293.48	80.0000
293.85	81.2000
294.22	82.0000
294.59	83.1000
294.96	82.0000
295.33	81.6000
295.70	81.3000
296.06	81.5000
296.43	82.0000
296.80	81.8000
297.17	83.1000
297.54	83.3000
297.91	82.8000
298.27	84.3000
298.64	83.6000
299.01	83.7000
299.38	83.3000
299.75	82.9000
300.11	83.8000
300.48	82.4000
300.85	84.0000
301.22	83.7000
301.59	84.1000
301.95	83.1000
302.32	84.1000
302.69	83.9000
303.06	83.5000
303.43	82.5000
303.79	82.4000
304.16	83.0000
304.53	84.6000
304.90	85.3000
305.26	84.2000
305.63	84.2000
306.00	84.3000
306.37	83.2000
306.73	84.4000
307.10	85.1000
307.47	85.6000
307.84	85.1000
308.20	86.5000
308.57	86.4000
308.94	86.3000
309.31	85.7000
309.67	87.2000
310.04	85.2000
310.41	86.0000
310.77	83.3000
311.14	83.3000
311.51	85.4000
311.88	87.2000
312.24	86.7000
312.61	86.5000
312.98	87.5000
313.34	86.6000
313.71	85.1000
314.08	86.8000
314.44	87.2000
314.81	86.7000
315.18	87.9000
315.55	86.3000
315.91	87.1000
316.28	87.0000
316.65	85.1000
317.01	87.2000
317.38	87.6000
317.75	87.2000
318.11	89.2000
318.48	87.6000
318.84	87.2000
319.21	87.2000
319.58	88.8000
319.94	88.6000
320.31	86.9000
320.68	87.1000
321.04	89.0000
321.41	89.6000
321.78	88.9000
322.14	87.9000
322.51	88.6000
322.87	89.9000
323.24	89.6000
323.61	89.2000
323.97	87.8000
324.34	88.5000
324.70	89.0000
325.07	90.3000
325.44	88.0000
325.80	89.5000
326.17	90.3000
326.53	89.9000
326.90	90.8000
327.27	90.2000
327.63	89.0000
328.00	90.9000
328.36	90.4000
328.73	90.6000
329.09	89.2000
329.46	90.0000
329.83	90.4000
330.19	90.4000
330.56	91.2000
330.92	90.2000
331.29	91.6000
331.65	91.2000
332.02	92.0000
332.38	91.5000
332.75	91.8000
333.11	92.1000
333.48	93.9000
333.84	92.2000
334.21	92.4000
334.58	93.9000
334.94	91.9000
335.31	92.4000
335.67	92.1000
336.04	93.3000
336.40	93.2000
336.77	91.8000
337.13	93.3000
337.50	93.3000
337.86	91.8000
338.22	95.0000
338.59	94.0000
338.95	93.4000
339.32	94.4000
339.68	93.4000
340.05	92.8000
340.41	93.7000
340.78	93.5000
341.14	93.1000
341.51	94.0000
341.87	94.7000
342.24	96.3000
342.60	93.8000
342.96	94.6000
343.33	95.9000
343.69	96.5000
344.06	95.9000
344.42	96.1000
344.79	96.9000
345.15	97.8000
345.51	98.0000
345.88	98.2000
346.24	98.0000
346.61	98.1000
346.97	98.3000
347.34	99.5000
347.70	99.2000
348.06	97.7000
348.43	99.0000
348.79	99.9000
349.16	97.5000
349.52	100.6000
349.88	102.2000
350.25	101.2000
350.61	100.7000
350.97	101.0000
351.34	99.3000
351.70	102.2000
352.07	100.7000
352.43	101.9000
352.79	100.3000
353.16	100.7000
353.52	101.4000
353.88	101.6000
354.25	101.9000
354.61	101.6000
354.97	102.5000
355.34	106.0000
355.70	103.8000
356.06	104.7000
356.43	105.7000
356.79	104.2000
357.15	104.0000
357.52	103.9000
357.88	103.8000
358.24	104.1000
358.60	106.3000
358.97	106.2000
359.33	107.3000
359.69	106.6000
360.06	107.5000
360.42	106.8000
360.78	109.4000
361.14	108.8000
361.51	110.5000
361.87	109.8000
362.23	111.3000
362.60	112.4000
362.96	111.6000
363.32	110.7000
363.68	111.8000
364.05	111.2000
364.41	112.8000
364.77	114.4000
365.13	115.2000
365.50	115.1000
365.86	116.8000
366.22	118.0000
366.58	114.8000
366.95	118.3000
367.31	116.4000
367.67	118.0000
368.03	115.5000
368.39	119.7000
368.76	121.1000
369.12	116.6000
369.48	118.1000
369.84	118.1000
370.20	121.4000
370.57	120.2000
370.93	121.7000
371.29	120.5000
371.65	121.7000
372.01	122.7000
372.38	123.2000
372.74	123.0000
373.10	122.0000
373.46	122.9000
373.82	124.4000
374.18	125.0000
374.55	124.1000
374.91	124.5000
375.27	127.6000
375.63	125.8000
375.99	127.4000
376.35	127.4000
376.71	126.3000
377.08	128.3000
377.44	129.6000
377.80	135.9000
378.16	132.2000
378.52	134.8000
378.88	135.4000
379.24	136.1000
379.60	135.7000
379.97	140.1000
380.33	140.0000
380.69	139.6000
381.05	138.2000
381.41	142.7000
381.77	140.7000
382.13	141.5000
382.49	140.7000
382.85	140.7000
383.21	144.5000
383.57	138.6000
383.94	147.0000
384.30	144.0000
384.66	146.1000
385.02	138.9000
385.38	143.2000
385.74	143.5000
386.10	148.1000
386.46	152.1000
386.82	148.2000
387.18	150.2000
387.54	151.4000
387.90	149.2000
388.26	153.9000
388.62	152.1000
388.98	149.1000
389.34	149.4000
389.70	150.6000
390.06	142.6000
390.42	142.6000
390.78	155.6000
391.14	160.4000
391.50	155.6000
391.86	164.2000
392.22	166.4000
392.58	164.4000
392.94	150.6000
393.30	155.3000
393.66	157.9000
394.02	161.5000
394.38	144.2000
394.74	153.1000
395.10	154.9000
395.46	160.3000
395.82	160.3000
396.18	156.8000
396.54	168.9000
396.90	171.2000
397.26	169.3000
397.62	164.8000
397.98	176.4000
398.34	162.2000
398.70	162.6000
399.05	151.5000
399.41	155.7000
399.77	157.9000
400.13	164.0000
400.49	164.7000
400.85	166.7000
401.21	157.7000
401.57	168.4000
401.93	161.2000
402.29	158.6000
402.65	162.5000
403.00	166.2000
403.36	168.3000
403.72	164.7000
404.08	178.9000
404.44	167.6000
404.80	172.3000
405.16	173.0000
405.52	172.2000
405.87	176.0000
406.23	172.8000
406.59	157.7000
406.95	166.1000
407.31	169.9000
407.67	170.0000
408.03	169.3000
408.38	172.3000
408.74	184.1000
409.10	185.4000
409.46	172.3000
409.82	173.8000
410.17	171.6000
410.53	168.3000
410.89	173.1000
411.25	160.8000
411.61	169.7000
411.97	176.0000
412.32	179.1000
412.68	179.9000
413.04	170.6000
413.40	160.9000
413.75	166.4000
414.11	168.1000
414.47	164.9000
414.83	181.6000
415.19	173.7000
415.54	163.3000
415.90	176.4000
416.26	173.8000
416.62	176.4000
416.97	163.5000
417.33	180.3000
417.69	176.3000
418.05	172.7000
418.40	167.3000
418.76	170.0000
419.12	181.3000
419.48	183.7000
419.83	191.4000
420.19	178.1000
420.55	180.9000
420.90	203.8000
421.26	193.1000
421.62	180.0000
421.98	192.1000
422.33	199.1000
422.69	200.9000
423.05	194.6000
423.40	176.6000
423.76	171.7000
424.12	187.0000
424.47	184.5000
424.83	177.6000
425.19	177.5000
425.54	181.2000
425.90	189.0000
426.26	192.4000
426.61	199.6000
426.97	168.1000
427.33	187.5000
427.68	182.9000
428.04	205.3000
428.40	205.1000
428.75	213.9000
429.11	199.7000
429.47	219.0000
429.82	215.3000
430.18	202.0000
430.53	196.3000
430.89	194.2000
431.25	190.3000
431.60	193.4000
431.96	191.7000
432.31	187.9000
432.67	202.3000
433.03	212.9000
433.38	198.1000
433.74	199.1000
434.09	199.6000
434.45	197.7000
434.81	188.5000
435.16	202.3000
435.52	191.1000
435.87	187.0000
436.23	187.0000
436.58	187.8000
436.94	196.4000
437.30	200.6000
437.65	206.4000
438.01	204.6000
438.36	196.2000
438.72	194.0000
439.07	186.9000
439.43	193.7000
439.78	206.7000
440.14	223.9000
440.49	203.5000
440.85	207.9000
441.20	214.8000
441.56	206.0000
441.91	218.7000
442.27	204.3000
442.62	206.0000
442.98	214.2000
443.33	208.0000
443.69	213.3000
444.04	206.9000
444.40	193.3000
444.75	211.8000
445.11	225.3000
445.46	226.4000
445.82	222.3000
446.17	208.7000
446.53	215.8000
446.88	231.0000
447.23	201.0000
447.59	201.6000
447.94	201.5000
448.30	206.3000
448.65	206.0000
449.01	217.8000
449.36	214.4000
449.72	222.7000
450.07	234.1000
450.42	219.9000
450.78	209.8000
451.13	220.1000
451.49	207.9000
451.84	206.9000
452.19	198.7000
452.55	206.1000
452.90	210.1000
453.26	224.4000
453.61	228.4000
453.96	197.0000
454.32	219.6000
454.67	212.4000
455.02	195.9000
455.38	207.0000
455.73	207.8000
456.09	222.6000
456.44	224.9000
456.79	224.7000
457.15	218.8000
457.50	215.3000
457.85	213.5000
458.21	220.5000
458.56	222.0000
458.91	216.2000
459.27	206.6000
459.62	215.3000
459.97	217.4000
460.32	217.1000
460.68	212.3000
461.03	203.5000
461.38	208.5000
461.74	226.0000
462.09	219.1000
462.44	214.1000
462.80	221.9000
463.15	221.3000
463.50	218.6000
463.85	228.5000
464.21	233.9000
464.56	240.2000
464.91	220.1000
465.26	222.7000
465.62	225.4000
465.97	233.9000
466.32	226.9000
466.67	227.4000
467.03	224.8000
467.38	224.8000
467.73	227.6000
468.08	229.4000
468.44	230.4000
468.79	222.3000
469.14	215.4000
469.49	223.7000
469.85	225.3000
470.20	240.8000
470.55	245.9000
470.90	241.8000
471.25	229.4000
471.61	241.9000
471.96	241.7000
472.31	253.3000
472.66	251.8000
473.01	257.2000
473.36	262.5000
473.72	263.7000
474.07	267.9000
474.42	266.7000
474.77	270.2000
475.12	272.5000
475.47	276.8000
475.83	278.3000
476.18	276.6000
476.53	272.8000
476.88	284.7000
477.23	283.5000
477.58	281.6000
477.93	283.6000
478.28	282.3000
478.64	292.1000
478.99	294.6000
479.34	299.9000
479.69	306.6000
480.04	310.2000
480.39	307.2000
480.74	301.9000
481.09	322.1000
481.44	318.2000
481.79	313.8000
482.15	313.4000
482.50	318.4000
482.85	323.1000
483.20	332.8000
483.55	340.8000
483.90	354.6000
484.25	414.5000
484.60	453.5000
484.95	488.6000
485.30	466.4000
485.65	424.1000
486.00	405.5000
486.35	372.2000
486.70	351.8000
487.05	353.4000
487.40	354.3000
487.75	349.9000
488.10	354.7000
488.45	344.7000
488.80	349.1000
489.15	355.5000
489.50	353.6000
489.85	357.7000
490.20	353.1000
490.55	356.0000
490.90	357.2000
491.25	357.7000
491.60	352.5000
491.95	351.9000
492.30	357.4000
492.65	362.5000
493.00	356.7000
493.35	356.3000
493.70	359.8000
494.05	358.5000
494.40	362.9000
494.75	369.2000
495.10	369.3000
495.45	374.6000
495.80	373.9000
496.15	365.5000
496.50	358.1000
496.84	361.2000
497.19	361.1000
497.54	364.6000
497.89	367.6000
498.24	368.6000
498.59	373.0000
498.94	365.8000
499.29	367.2000
499.64	364.2000
499.99	372.7000
500.33	378.8000
500.68	381.4000
501.03	380.1000
501.38	380.5000
501.73	379.3000
502.08	380.7000
502.43	382.1000
502.77	381.1000
503.12	377.9000
503.47	376.6000
503.82	376.1000
504.17	379.0000
504.52	384.2000
504.86	381.9000
505.21	387.3000
505.56	384.3000
505.91	379.1000
506.26	375.3000
506.61	382.3000
506.95	383.0000
507.30	379.9000
507.65	384.9000
508.00	380.4000
508.35	380.6000
508.69	383.2000
509.04	386.1000
509.39	384.0000
509.74	383.0000
510.08	385.9000
510.43	388.1000
510.78	387.7000
511.13	386.4000
511.47	387.1000
511.82	391.5000
512.17	389.9000
512.52	387.8000
512.86	392.1000
513.21	391.8000
513.56	392.1000
513.91	392.2000
514.25	387.9000
514.60	387.8000
514.95	393.6000
515.30	392.8000
515.64	388.0000
515.99	394.3000
516.34	396.5000
516.68	395.6000
517.03	393.5000
517.38	394.8000
517.72	397.4000
518.07	402.7000
518.42	400.7000
518.76	401.1000
519.11	401.1000
519.46	398.6000
519.80	398.4000
520.15	399.0000
520.50	398.7000
520.84	398.5000
521.19	399.8000
521.54	403.0000
521.88	394.7000
522.23	399.9000
522.58	401.6000
522.92	404.4000
523.27	405.2000
523.61	402.8000
523.96	400.7000
524.31	405.1000
524.65	409.0000
525.00	405.9000
525.34	398.8000
525.69	406.5000
526.04	407.4000
526.38	408.7000
526.73	408.6000
527.07	411.1000
527.42	410.5000
527.76	414.5000
528.11	416.4000
528.46	414.1000
528.80	413.1000
529.15	407.0000
529.49	406.7000
529.84	412.0000
530.18	413.9000
530.53	418.4000
530.87	410.8000
531.22	406.7000
531.56	412.3000
531.91	416.4000
532.25	415.2000
532.60	418.3000
532.94	420.2000
533.29	419.6000
533.63	417.3000
533.98	417.3000
534.32	420.0000
534.67	421.0000
535.01	421.8000
535.36	414.2000
535.70	418.0000
536.05	420.4000
536.39	423.6000
536.74	421.1000
537.08	420.4000
537.43	423.9000
537.77	427.3000
538.12	427.8000
538.46	427.2000
538.80	430.8000
539.15	424.7000
539.49	427.5000
539.84	433.8000
540.18	432.1000
540.53	427.6000
540.87	432.3000
541.21	437.0000
541.56	433.9000
541.90	433.5000
542.25	435.6000
542.59	432.4000
542.93	440.0000
543.28	437.4000
543.62	437.8000
543.97	438.4000
544.31	435.6000
544.65	432.5000
545.00	436.3000
545.34	437.2000
545.68	437.3000
546.03	436.7000
546.37	449.0000
546.71	452.2000
547.06	454.1000
547.40	451.7000
547.74	451.2000
548.09	444.3000
548.43	440.5000
548.77	440.4000
549.12	438.3000
549.46	435.0000
549.80	437.2000
550.15	438.9000
550.49	437.7000
550.83	445.6000
551.17	454.3000
551.52	452.5000
551.86	454.9000
552.20	450.6000
552.55	457.6000
552.89	454.7000
553.23	446.4000
553.57	451.8000
553.92	457.1000
554.26	458.8000
554.60	461.3000
554.94	463.3000
555.29	462.8000
555.63	459.2000
555.97	457.9000
556.31	463.4000
556.66	458.8000
557.00	455.3000
557.34	456.6000
557.68	457.5000
558.02	461.6000
558.37	465.4000
558.71	473.0000
559.05	476.5000
559.39	487.5000
559.73	491.4000
560.08	491.7000
560.42	489.6000
560.76	487.0000
561.10	485.6000
561.44	484.0000
561.78	486.4000
562.13	498.1000
562.47	491.6000
562.81	497.4000
563.15	499.4000
563.49	502.9000
563.83	500.4000
564.17	499.5000
564.52	502.6000
564.86	502.6000
565.20	503.8000
565.54	506.0000
565.88	510.5000
566.22	521.2000
566.56	521.0000
566.90	528.8000
567.24	537.9000
567.59	544.0000
567.93	554.1000
568.27	568.1000
568.61	586.5000
568.95	587.4000
569.29	592.0000
569.63	607.9000
569.97	621.2000
570.31	626.2000
570.65	641.1000
570.99	641.6000
571.33	634.7000
571.67	636.2000
572.01	646.9000
572.35	669.6000
572.69	684.4000
573.03	689.4000
573.37	707.1000
573.71	707.0000
574.05	702.9000
574.39	694.0000
574.73	690.8000
575.07	685.5000
575.41	696.8000
575.75	699.6000
576.09	731.1000
576.43	763.0000
576.77	791.3000
577.11	784.1000
577.45	765.5000
577.79	742.5000
578.13	737.9000
578.47	730.4000
578.81	739.0000
579.15	734.5000
579.49	746.6000
579.83	799.3000
580.17	844.9000
580.51	887.2000
580.85	890.0000
581.19	854.5000
581.53	815.1000
581.87	770.0000
582.20	733.9000
582.54	712.4000
582.88	712.0000
583.22	731.8000
583.56	757.4000
583.90	795.0000
584.24	818.2000
584.58	802.9000
584.92	788.3000
585.25	768.0000
585.59	757.9000
585.93	768.3000
586.27	783.6000
586.61	773.0000
586.95	776.4000
587.29	767.0000
587.62	751.8000
587.96	733.7000
588.30	722.1000
588.64	711.6000
588.98	714.0000
589.31	702.7000
589.65	694.0000
589.99	681.5000
590.33	692.0000
590.67	689.9000
591.01	701.6000
591.34	737.7000
591.68	773.2000
592.02	798.6000
592.36	790.4000
592.69	773.9000
593.03	761.5000
593.37	761.8000
593.71	760.1000
594.04	768.2000
594.38	765.5000
594.72	758.0000
595.06	733.4000
595.39	729.6000
595.73	724.7000
596.07	739.1000
596.41	740.8000
596.74	738.0000
597.08	740.4000
597.42	761.7000
597.76	772.2000
598.09	790.6000
598.43	775.6000
598.77	789.0000
599.10	801.7000
599.44	796.8000
599.78	792.1000
600.11	793.0000
600.45	791.9000
600.79	774.0000
601.12	772.6000
601.46	776.0000
601.80	796.4000
602.13	796.7000
602.47	809.2000
602.81	803.1000
603.14	791.6000
603.48	783.5000
603.82	781.7000
604.15	776.2000
604.49	790.9000
604.82	791.0000
605.16	786.4000
605.50	774.4000
605.83	786.8000
606.17	784.7000
606.50	791.2000
606.84	785.4000
607.18	771.2000
607.51	765.8000
607.85	763.2000
608.18	752.6000
608.52	768.4000
608.86	776.1000
609.19	788.9000
609.53	771.0000
609.86	773.2000
610.20	773.9000
610.53	768.6000
610.87	756.0000
611.20	770.8000
611.54	746.1000
611.87	748.3000
612.21	764.6000
612.54	754.0000
612.88	750.9000
613.21	764.2000
613.55	768.4000
613.88	771.7000
614.22	785.2000
614.55	774.4000
614.89	770.5000
615.22	756.5000
615.56	752.2000
615.89	749.9000
616.23	747.0000
616.56	736.4000
616.90	741.5000
617.23	736.1000
617.57	740.6000
617.90	722.3000
618.24	723.7000
618.57	726.0000
618.90	724.6000
619.24	724.0000
619.57	708.9000
619.91	701.9000
620.24	685.4000
620.58	698.8000
620.91	717.2000
621.24	714.9000
621.58	723.3000
621.91	725.0000
622.25	735.3000
622.58	726.2000
622.91	729.6000
623.25	723.1000
623.58	720.9000
623.91	716.9000
624.25	709.5000
624.58	708.9000
624.92	704.5000
625.25	700.7000
625.58	691.0000
625.92	704.2000
626.25	699.3000
626.58	703.7000
626.92	689.3000
627.25	688.7000
627.58	680.5000
627.91	693.8000
628.25	692.4000
628.58	692.0000
628.91	691.6000
629.25	690.4000
629.58	689.9000
629.91	685.4000
630.25	682.5000
630.58	669.9000
630.91	674.1000
631.24	671.3000
631.58	662.2000
631.91	667.7000
632.24	662.5000
632.57	662.1000
632.91	668.1000
633.24	659.2000
633.57	660.7000
633.90	657.3000
634.24	653.7000
634.57	654.2000
634.90	656.9000
635.23	658.7000
635.56	663.9000
635.90	664.3000
636.23	666.6000
636.56	657.8000
636.89	666.1000
637.22	663.9000
637.56	660.9000
637.89	655.1000
638.22	656.4000
638.55	656.9000
638.88	650.6000
639.21	654.1000
639.55	649.8000
639.88	652.6000
640.21	650.5000
640.54	648.4000
640.87	648.1000
641.20	645.5000
641.53	648.3000
641.87	641.3000
642.20	643.1000
642.53	641.2000
642.86	645.0000
643.19	642.3000
643.52	643.8000
643.85	644.2000
644.18	641.8000
644.51	633.9000
644.84	640.6000
645.18	634.6000
645.51	632.7000
645.84	636.0000
646.17	633.8000
646.50	634.2000
646.83	637.9000
647.16	640.1000
647.49	646.7000
647.82	652.2000
648.15	657.4000
648.48	660.5000
648.81	653.9000
649.14	648.1000
649.47	646.9000
649.80	636.0000
650.13	633.7000
650.46	642.6000
650.79	642.2000
651.12	638.6000
651.45	637.9000
651.78	636.2000
652.11	645.1000
652.44	641.6000
652.77	636.3000
653.10	634.6000
653.43	639.1000
653.76	634.4000
654.09	671.5000
654.42	1141.3000
654.75	1787.8000
655.08	2150.6001
655.41	2202.7000
655.74	1745.1000
656.07	1419.7000
656.39	1211.1000
656.72	1028.3000
657.05	861.8000
657.38	746.4000
657.71	688.1000
658.04	655.1000
658.37	644.6000
658.70	637.2000
659.03	632.5000
659.36	632.2000
659.68	628.7000
660.01	624.5000
660.34	630.3000
660.67	630.5000
661.00	638.9000
661.33	630.2000
661.66	627.9000
661.98	632.1000
662.31	632.1000
662.64	632.0000
662.97	637.7000
663.30	636.8000
663.63	636.9000
663.95	636.0000
664.28	636.7000
664.61	631.0000
664.94	638.8000
665.27	633.6000
665.59	627.7000
665.92	630.3000
666.25	629.1000
666.58	617.4000
666.91	627.5000
667.23	620.0000
667.56	621.3000
667.89	620.6000
668.22	624.1000
668.54	620.5000
668.87	621.2000
669.20	619.4000
669.53	620.0000
669.85	618.5000
670.18	616.2000
670.51	621.8000
670.83	628.7000
671.16	644.2000
671.49	646.5000
671.82	640.9000
672.14	631.2000
672.47	626.4000
672.80	627.1000
673.12	626.8000
673.45	627.1000
673.78	614.0000
674.10	618.4000
674.43	618.3000
674.76	610.8000
675.08	624.7000
675.41	619.3000
675.74	625.8000
676.06	619.1000
676.39	614.2000
676.72	618.4000
677.04	626.8000
677.37	629.4000
677.69	623.6000
678.02	616.0000
678.35	621.2000
678.67	619.9000
679.00	627.0000
679.32	624.5000
679.65	614.4000
679.98	616.6000
680.30	613.2000
680.63	609.3000
680.95	609.4000
681.28	601.6000
681.60	597.0000
681.93	594.1000
682.26	593.8000
682.58	599.9000
682.91	604.8000
683.23	601.3000
683.56	604.8000
683.88	616.2000
684.21	618.2000
684.53	627.0000
684.86	629.4000
685.18	624.7000
685.51	619.0000
685.83	608.9000
686.16	598.7000
686.48	594.9000
686.81	597.6000
687.13	592.8000
687.46	587.8000
687.78	596.3000
688.11	583.0000
688.43	582.7000
688.76	583.2000
689.08	581.8000
689.41	578.4000
689.73	581.0000
690.05	578.0000
690.38	589.4000
690.70	591.9000
691.03	584.4000
691.35	589.0000
691.68	576.9000
692.00	582.0000
692.32	589.3000
692.65	580.7000
692.97	585.8000
693.29	576.1000
693.62	566.2000
693.94	572.4000
694.27	568.2000
694.59	560.5000
694.91	567.3000
695.24	560.2000
695.56	553.3000
695.88	562.9000
696.21	560.0000
696.53	565.1000
696.85	570.5000
697.18	562.7000
697.50	561.3000
697.82	566.4000
698.15	553.6000
698.47	546.9000
698.79	545.7000
699.12	544.2000
699.44	532.8000
699.76	533.4000
700.09	534.0000
700.41	533.7000
700.73	530.1000
701.05	534.7000
701.38	532.3000
701.70	543.4000
702.02	540.0000
702.34	538.7000
702.67	542.2000
702.99	540.0000
703.31	536.1000
703.63	536.7000
703.96	533.5000
704.28	533.6000
704.60	525.7000
704.92	530.7000
705.25	530.1000
705.57	537.9000
705.89	545.2000
706.21	560.4000
706.53	564.0000
706.86	562.5000
707.18	561.0000
707.50	560.3000
707.82	546.7000
708.14	547.0000
708.46	545.9000
708.79	534.5000
709.11	540.5000
709.43	537.1000
709.75	532.4000
710.07	530.9000
710.39	534.6000
710.71	529.5000
711.04	522.6000
711.36	522.9000
711.68	520.9000
712.00	522.2000
712.32	528.0000
712.64	525.1000
712.96	530.3000
713.28	526.8000
713.60	530.5000
713.92	523.0000
714.24	532.6000
714.57	526.8000
714.89	521.3000
715.21	522.2000
715.53	516.3000
715.85	511.1000
716.17	516.0000
716.49	507.2000
716.81	512.0000
717.13	519.1000
717.45	518.5000
717.77	520.8000
718.09	519.0000
718.41	527.0000
718.73	518.9000
719.05	511.2000
719.37	504.9000
719.69	505.9000
720.01	512.5000
720.33	506.7000
720.65	500.3000
720.97	501.1000
721.29	494.9000
721.61	504.1000
721.93	498.8000
722.25	496.4000
722.57	489.9000
722.89	489.9000
723.21	490.1000
723.52	487.9000
723.84	478.4000
724.16	489.5000
724.48	486.9000
724.80	490.5000
725.12	487.2000
725.44	486.0000
725.76	477.7000
726.08	484.1000
726.40	481.5000
726.72	481.1000
727.03	480.9000
727.35	482.5000
727.67	474.1000
727.99	476.0000
728.31	471.7000
728.63	473.8000
728.95	477.3000
729.26	477.1000
729.58	484.0000
729.90	487.8000
730.22	479.6000
730.54	487.6000
730.86	488.1000
731.17	489.1000
731.49	481.2000
731.81	477.6000
732.13	478.7000
732.45	473.0000
732.76	477.2000
733.08	478.2000
733.40	483.2000
733.72	484.7000
734.03	479.9000
734.35	475.7000
734.67	477.6000
734.99	469.7000
735.30	472.6000
735.62	469.5000
735.94	465.7000
736.26	467.2000
736.57	463.4000
736.89	462.0000
737.21	448.1000
737.53	445.8000
737.84	444.9000
738.16	447.5000
738.48	450.7000
738.79	463.3000
739.11	452.8000
739.43	447.6000
739.74	439.8000
740.06	434.2000
740.38	426.5000
740.69	424.0000
741.01	426.3000
741.33	422.0000
741.64	422.8000
741.96	420.1000
742.28	421.4000
742.59	412.4000
742.91	410.5000
743.23	406.6000
743.54	404.8000
743.86	401.4000
744.17	397.0000
744.49	402.0000
744.81	397.8000
745.12	398.0000
745.44	393.1000
745.75	394.6000
746.07	395.7000
746.38	393.0000
746.70	393.5000
747.02	394.8000
747.33	391.5000
747.65	387.5000
747.96	389.5000
748.28	389.2000
748.59	394.8000
748.91	392.0000
749.22	400.6000
749.54	404.8000
749.85	408.5000
750.17	405.6000
750.48	398.5000
750.80	398.8000
751.11	400.8000
751.43	397.6000
751.74	392.4000
752.06	388.4000
752.37	387.7000
752.69	391.7000
753.00	396.4000
753.32	397.2000
753.63	398.8000
753.95	395.2000
754.26	390.9000
754.58	393.0000
754.89	393.4000
755.20	392.6000
755.52	397.2000
755.83	401.0000
756.15	406.5000
756.46	413.0000
756.78	417.5000
757.09	414.7000
757.40	413.7000
757.72	411.9000
758.03	404.6000
758.34	399.7000
758.66	404.0000
758.97	401.6000
759.29	404.2000
759.60	405.0000
759.91	404.0000
760.23	403.7000
760.54	402.0000
760.85	395.4000
761.17	387.0000
761.48	382.3000
761.79	379.4000
762.11	378.4000
762.42	382.9000
762.73	381.8000
763.05	379.1000
763.36	386.8000
763.67	388.1000
763.98	394.7000
764.30	390.7000
764.61	391.4000
764.92	383.1000
765.23	379.7000
765.55	370.1000
765.86	364.3000
766.17	362.2000
766.48	355.9000
766.80	352.0000
767.11	358.9000
767.42	360.2000
767.73	364.5000
768.05	373.4000
768.36	377.2000
768.67	377.0000
768.98	369.5000
769.29	368.8000
769.61	367.0000
769.92	359.9000
770.23	364.0000
770.54	362.8000
770.85	362.5000
771.17	361.0000
771.48	356.2000
771.79	353.3000
772.10	350.2000
772.41	351.5000
772.72	349.5000
773.03	345.9000
773.35	348.3000
773.66	339.0000
773.97	335.7000
774.28	339.9000
774.59	332.9000
774.90	332.4000
775.21	330.0000
775.52	327.3000
775.83	327.5000
776.15	321.6000
776.46	320.8000
776.77	322.4000
777.08	322.9000
777.39	326.2000
777.70	323.1000
778.01	320.7000
778.32	323.7000
778.63	327.1000
778.94	322.2000
779.25	317.7000
779.56	312.1000
779.87	314.5000
780.18	315.0000
780.49	316.6000
780.80	318.8000
781.11	317.0000
781.42	316.4000
781.73	315.5000
782.04	308.2000
782.35	311.8000
782.66	312.1000
782.97	310.8000
783.28	315.1000
783.59	305.9000
783.90	303.0000
784.21	304.2000
784.52	299.8000
784.83	299.8000
785.14	303.8000
785.45	305.7000
785.76	303.7000
786.06	301.5000
786.37	300.6000
786.68	296.7000
786.99	297.3000
787.30	301.0000
787.61	301.3000
787.92	300.4000
788.23	298.9000
788.54	297.2000
788.84	293.9000
789.15	289.8000
789.46	287.6000
789.77	282.2000
790.08	283.4000
790.39	278.1000
790.70	279.4000
791.00	276.2000
791.31	270.6000
791.62	272.3000
791.93	264.5000
792.24	268.5000
792.54	266.2000
792.85	268.3000
793.16	273.7000
793.47	278.7000
793.78	280.4000
794.08	280.6000
794.39	274.4000
794.70	272.3000
795.01	269.5000
795.31	264.0000
795.62	257.8000
795.93	256.6000
796.24	259.2000
796.54	255.3000
796.85	257.7000
797.16	253.6000
797.47	253.6000
797.77	251.2000
798.08	250.6000
798.39	251.2000
798.69	251.2000
799.00	245.2000
799.31	246.7000
799.62	244.7000
799.92	241.0000
800.23	241.0000
800.54	242.1000
800.84	239.0000
801.15	236.0000
801.46	235.8000
801.76	236.6000
802.07	231.9000
802.37	231.8000
802.68	231.5000
802.99	232.4000
803.29	229.6000
803.60	226.5000
803.91	225.3000
804.21	228.3000
804.52	227.8000
804.82	224.9000
805.13	231.7000
805.44	232.1000
805.74	232.7000
806.05	236.1000
806.35	228.1000
806.66	226.7000
806.96	224.4000
807.27	223.2000
807.57	225.3000
807.88	227.4000
808.19	224.0000
808.49	224.0000
808.80	219.7000
809.10	219.4000
809.41	219.0000
809.71	215.9000
810.02	219.2000
810.32	216.8000
810.63	217.1000
810.93	216.4000
811.24	212.3000
811.54	213.5000
811.85	210.9000
812.15	210.3000
812.45	208.0000
812.76	209.6000
813.06	210.7000
813.37	210.3000
813.67	211.9000
813.98	208.4000
814.28	204.6000
814.58	206.3000
814.89	202.6000
815.19	202.2000
815.50	202.3000
815.80	203.2000
816.11	203.7000
816.41	202.7000
816.71	203.2000
817.02	201.6000
817.32	200.7000
817.62	197.7000
817.93	194.9000
818.23	192.6000
818.53	192.5000
818.84	194.4000
819.14	193.5000
819.44	193.5000
819.75	191.5000
820.05	192.3000
820.35	194.0000
820.66	195.3000
820.96	192.9000
821.26	191.2000
821.57	190.9000
821.87	188.7000
822.17	188.5000
822.48	189.8000
822.78	185.8000
823.08	183.1000
823.38	184.0000
823.69	182.2000
823.99	184.5000
824.29	182.8000
824.59	181.9000
824.90	185.9000
825.20	182.5000
825.50	181.3000
825.80	179.5000
826.10	180.8000
826.41	180.3000
826.71	181.3000
827.01	181.1000
827.31	184.8000
827.61	181.4000
827.92	180.9000
828.22	179.1000
828.52	178.5000
828.82	175.3000
829.12	173.6000
829.42	173.0000
829.73	172.5000
830.03	171.4000
830.33	170.8000
830.63	168.2000
830.93	169.4000
831.23	168.0000
831.53	168.4000
831.83	168.0000
832.14	166.3000
832.44	168.0000
832.74	168.4000
833.04	168.9000
833.34	169.6000
833.64	166.9000
833.94	163.8000
834.24	166.3000
834.54	165.8000
834.84	164.8000
835.14	165.0000
835.44	166.0000
835.74	167.3000
836.04	165.3000
836.34	164.6000
836.64	162.9000
836.95	161.4000
837.25	157.7000
837.55	159.3000
837.85	157.9000
838.15	161.3000
838.45	157.6000
838.74	157.0000
839.04	156.0000
839.34	155.1000
839.64	154.9000
839.94	153.9000
840.24	153.6000
840.54	153.6000
840.84	154.5000
841.14	153.1000
841.44	153.0000
841.74	152.3000
842.04	154.8000
842.34	152.3000
842.64	153.2000
842.94	150.6000
843.24	151.7000
843.53	149.7000
843.83	148.4000
844.13	148.4000
844.43	149.0000
844.73	149.7000
845.03	147.7000
845.33	147.7000
845.63	146.4000
845.92	146.0000
846.22	147.2000
846.52	145.9000
846.82	147.2000
847.12	144.3000
847.42	143.6000
847.71	143.8000
848.01	143.0000
848.31	142.3000
848.61	142.4000
848.91	142.9000
849.20	143.6000
849.50	141.3000
849.80	144.1000
850.10	142.7000
850.39	141.7000
850.69	141.5000
850.99	140.6000
851.29	141.2000
851.59	141.2000
851.88	139.1000
852.18	139.7000
852.48	142.2000
852.77	142.1000
853.07	142.7000
853.37	141.1000
853.67	142.9000
853.96	141.4000
854.26	142.9000
854.56	140.9000
854.85	140.3000
855.15	139.7000
855.45	139.7000
855.74	140.2000
856.04	137.8000
856.34	138.4000
856.63	137.0000
856.93	135.7000
857.23	136.4000
857.52	134.8000
857.82	134.9000
858.11	133.7000
858.41	133.6000
858.71	132.5000
859.00	130.6000
859.30	132.4000
859.59	130.5000
859.89	132.0000
860.19	130.4000
860.48	129.4000
860.78	128.8000
861.07	130.6000
861.37	128.0000
861.66	127.9000
861.96	125.6000
862.26	127.1000
862.55	129.1000
862.85	127.4000
863.14	127.8000
863.44	126.7000
863.73	127.1000
864.03	127.6000
864.32	126.6000
864.62	125.6000
864.91	125.4000
865.21	124.4000
865.50	123.0000
865.80	124.6000
866.09	123.6000
866.39	122.2000
866.68	122.0000
866.97	123.6000
867.27	120.3000
867.56	119.8000
867.86	120.9000
868.15	119.8000
868.45	119.4000
868.74	119.7000
869.03	120.2000
869.33	120.3000
869.62	119.4000
869.92	117.9000
870.21	116.6000
870.50	117.7000
870.80	118.1000
871.09	116.1000
871.39	118.6000
871.68	117.1000
871.97	116.9000
872.27	117.2000
872.56	114.8000
872.85	115.4000
873.15	114.7000
873.44	113.1000
873.73	115.3000
874.03	114.7000
874.32	113.8000
874.61	114.8000
874.90	113.5000
875.20	113.7000
875.49	113.0000
875.78	112.1000