OOIBase32 Version 1.0.0.8 Data File
++++++++++++++++++++++++++++++++++++
Date: Wednesday, January 16, 1980, 02:26:22
User: Valued Ocean Optics Customer
Spectrometer Serial Number: Unknown
Spectrometer Channel: Master
Integration Time (msec): 3
Spectra Averaged: 10
Boxcar Smoothing: 0
Correct for Electrical Dark: Disabled
Time Normalized: Disabled
Dual-beam Reference: Disabled
Reference Channel: Master
>>>>>Begin Spectral Data<<<<<
179.00	0.0000
179.38	0.0000
179.75	69.8000
180.13	71.5000
180.51	68.4000
180.88	71.7000
181.26	72.8000
181.64	71.0000
182.02	72.1000
182.39	72.3000
182.77	71.6000
183.15	71.5000
183.52	71.6000
183.90	71.5000
184.28	71.3000
184.65	72.4000
185.03	73.2000
185.41	71.7000
185.78	71.4000
186.16	69.7000
186.53	72.9000
186.91	73.2000
187.29	72.6000
187.66	72.2000
188.04	70.8000
188.42	72.8000
188.79	73.5000
189.17	74.3000
189.55	72.7000
189.92	74.8000
190.30	73.5000
190.67	74.8000
191.05	73.1000
191.43	74.4000
191.80	73.4000
192.18	75.4000
192.56	75.2000
192.93	74.8000
193.31	74.7000
193.68	72.8000
194.06	74.8000
194.44	75.0000
194.81	75.0000
195.19	74.1000
195.56	74.8000
195.94	73.9000
196.32	73.9000
196.69	73.5000
197.07	76.1000
197.44	74.6000
197.82	74.6000
198.19	75.0000
198.57	73.5000
198.95	74.5000
199.32	74.8000
199.70	74.8000
200.07	74.7000
200.45	74.0000
200.82	76.1000
201.20	75.5000
201.57	76.6000
201.95	75.7000
202.33	75.5000
202.70	75.2000
203.08	74.0000
203.45	74.4000
203.83	73.8000
204.20	75.7000
204.58	74.9000
204.95	76.1000
205.33	75.0000
205.70	74.5000
206.08	75.1000
206.45	76.1000
206.83	75.2000
207.20	74.5000
207.58	75.7000
207.95	74.5000
208.33	75.2000
208.70	75.7000
209.08	75.1000
209.45	76.5000
209.83	76.3000
210.20	76.1000
210.58	74.9000
210.95	75.8000
211.33	77.1000
211.70	75.9000
212.08	76.2000
212.45	76.8000
212.83	76.0000
213.20	75.8000
213.58	76.6000
213.95	77.9000
214.33	76.5000
214.70	78.3000
215.07	79.2000
215.45	77.1000
215.82	79.3000
216.20	77.8000
216.57	79.1000
216.95	78.4000
217.32	79.1000
217.70	81.1000
218.07	78.3000
218.44	80.8000
218.82	78.9000
219.19	79.6000
219.57	79.2000
219.94	80.0000
220.32	77.8000
220.69	78.7000
221.06	78.9000
221.44	79.4000
221.81	78.4000
222.19	79.4000
222.56	78.4000
222.93	77.7000
223.31	79.6000
223.68	79.6000
224.06	77.9000
224.43	79.5000
224.80	79.9000
225.18	78.0000
225.55	78.8000
225.92	78.2000
226.30	77.8000
226.67	78.5000
227.05	77.5000
227.42	77.5000
227.79	77.2000
228.17	77.5000
228.54	76.4000
228.91	77.6000
229.29	76.7000
229.66	75.7000
230.03	77.4000
230.41	76.3000
230.78	78.7000
231.15	77.6000
231.53	77.6000
231.90	77.7000
232.27	78.5000
232.65	78.4000
233.02	77.3000
233.39	78.4000
233.77	77.8000
234.14	77.8000
234.51	79.4000
234.89	79.0000
235.26	80.2000
235.63	79.6000
236.01	78.7000
236.38	79.8000
236.75	80.1000
237.12	79.0000
237.50	79.1000
237.87	81.1000
238.24	81.0000
238.62	81.4000
238.99	81.6000
239.36	82.4000
239.73	82.9000
240.11	83.4000
240.48	85.4000
240.85	83.8000
241.23	83.4000
241.60	85.9000
241.97	86.7000
242.34	88.7000
242.72	88.6000
243.09	88.4000
243.46	91.5000
243.83	93.1000
244.21	97.4000
244.58	104.3000
244.95	108.7000
245.32	113.5000
245.70	122.4000
246.07	130.4000
246.44	141.3000
246.81	147.6000
247.18	163.6000
247.56	182.7000
247.93	196.0000
248.30	215.8000
248.67	246.6000
249.04	279.8000
249.42	334.1000
249.79	418.1000
250.16	515.4000
250.53	634.6000
250.90	839.7000
251.28	1287.4000
251.65	2236.8999
252.02	4095.0000
252.39	4095.0000
252.76	4095.0000
253.14	4095.0000
253.51	4095.0000
253.88	4095.0000
254.25	3920.3000
254.62	1144.8000
254.99	789.7000
255.37	638.6000
255.74	524.8000
256.11	423.6000
256.48	343.5000
256.85	301.3000
257.22	254.0000
257.59	221.8000
257.97	180.8000
258.34	158.4000
258.71	147.3000
259.08	131.6000
259.45	119.6000
259.82	114.4000
260.19	108.8000
260.56	106.2000
260.94	99.8000
261.31	98.6000
261.68	94.7000
262.05	91.9000
262.42	90.8000
262.79	92.6000
263.16	93.1000
263.53	93.5000
263.90	100.0000
264.28	112.4000
264.65	119.9000
265.02	113.8000
265.39	99.0000
265.76	86.3000
266.13	84.5000
266.50	85.6000
266.87	84.8000
267.24	83.3000
267.61	82.9000
267.98	82.5000
268.35	82.8000
268.72	83.7000
269.09	83.6000
269.46	84.6000
269.84	83.0000
270.21	81.2000
270.58	82.4000
270.95	79.9000
271.32	82.6000
271.69	81.8000
272.06	82.6000
272.43	81.2000
272.80	82.7000
273.17	82.2000
273.54	83.6000
273.91	85.0000
274.28	90.7000
274.65	91.4000
275.02	90.7000
275.39	85.6000
275.76	82.9000
276.13	81.6000
276.50	82.2000
276.87	81.6000
277.24	83.5000
277.61	82.9000
277.98	82.0000
278.35	83.5000
278.72	84.7000
279.09	87.7000
279.46	94.6000
279.83	94.7000
280.20	92.2000
280.57	91.6000
280.94	93.6000
281.31	97.1000
281.67	98.9000
282.04	98.5000
282.41	93.9000
282.78	87.8000
283.15	85.8000
283.52	85.8000
283.89	84.4000
284.26	83.0000
284.63	83.8000
285.00	82.0000
285.37	82.1000
285.74	83.3000
286.11	83.0000
286.48	83.3000
286.85	84.6000
287.21	85.4000
287.58	88.9000
287.95	99.8000
288.32	116.0000
288.69	119.8000
289.06	112.9000
289.43	94.4000
289.80	87.0000
290.17	85.8000
290.54	85.5000
290.90	86.0000
291.27	88.0000
291.64	91.0000
292.01	89.6000
292.38	90.6000
292.75	92.9000
293.12	96.1000
293.48	101.8000
293.85	112.1000
294.22	126.6000
294.59	172.5000
294.96	275.8000
295.33	534.3000
295.70	897.7000
296.06	937.9000
296.43	736.3000
296.80	340.5000
297.17	155.0000
297.54	114.3000
297.91	103.8000
298.27	97.6000
298.64	96.2000
299.01	95.7000
299.38	94.1000
299.75	96.1000
300.11	101.8000
300.48	121.6000
300.85	167.4000
301.22	205.1000
301.59	204.0000
301.95	169.0000
302.32	114.2000
302.69	92.9000
303.06	87.7000
303.43	86.2000
303.79	87.2000
304.16	87.2000
304.53	88.6000
304.90	87.7000
305.26	87.9000
305.63	87.1000
306.00	88.7000
306.37	90.9000
306.73	92.6000
307.10	94.2000
307.47	98.4000
307.84	101.7000
308.20	108.7000
308.57	116.4000
308.94	123.4000
309.31	137.1000
309.67	154.9000
310.04	196.9000
310.41	281.8000
310.77	511.2000
311.14	1147.6000
311.51	2081.0000
311.88	3195.3999
312.24	3414.6001
312.61	2764.3000
312.98	1691.5000
313.34	684.6000
313.71	293.7000
314.08	186.0000
314.44	149.2000
314.81	133.3000
315.18	123.0000
315.55	113.7000
315.91	108.2000
316.28	104.6000
316.65	101.0000
317.01	97.4000
317.38	95.6000
317.75	93.5000
318.11	91.2000
318.48	86.7000
318.84	87.3000
319.21	87.7000
319.58	86.1000
319.94	83.8000
320.31	83.7000
320.68	85.8000
321.04	84.1000
321.41	83.8000
321.78	82.0000
322.14	83.0000
322.51	81.7000
322.87	82.2000
323.24	83.5000
323.61	83.4000
323.97	83.4000
324.34	81.9000
324.70	83.3000
325.07	81.5000
325.44	82.8000
325.80	82.3000
326.17	82.7000
326.53	83.0000
326.90	81.5000
327.27	83.9000
327.63	82.4000
328.00	85.4000
328.36	84.5000
328.73	82.4000
329.09	84.3000
329.46	82.6000
329.83	82.5000
330.19	83.0000
330.56	84.6000
330.92	85.6000
331.29	85.6000
331.65	86.8000
332.02	92.6000
332.38	113.3000
332.75	156.0000
333.11	186.2000
333.48	194.8000
333.84	164.3000
334.21	125.0000
334.58	102.6000
334.94	89.9000
335.31	87.3000
335.67	84.7000
336.04	85.4000
336.40	84.9000
336.77	83.4000
337.13	84.4000
337.50	84.1000
337.86	83.8000
338.22	82.5000
338.59	83.4000
338.95	84.3000
339.32	83.2000
339.68	82.5000
340.05	83.1000
340.41	83.2000
340.78	83.8000
341.14	83.8000
341.51	83.5000
341.87	82.8000
342.24	85.0000
342.60	84.3000
342.96	84.0000
343.33	81.8000
343.69	82.6000
344.06	85.0000
344.42	84.0000
344.79	84.2000
345.15	83.9000
345.51	83.3000
345.88	83.6000
346.24	83.7000
346.61	83.7000
346.97	83.7000
347.34	83.8000
347.70	84.1000
348.06	82.8000
348.43	83.5000
348.79	84.8000
349.16	84.9000
349.52	84.1000
349.88	84.0000
350.25	84.4000
350.61	85.1000
350.97	84.8000
351.34	86.4000
351.70	86.3000
352.07	87.0000
352.43	87.8000
352.79	86.7000
353.16	86.5000
353.52	86.7000
353.88	85.9000
354.25	87.6000
354.61	89.7000
354.97	89.4000
355.34	91.5000
355.70	93.6000
356.06	94.7000
356.43	97.5000
356.79	100.5000
357.15	104.2000
357.52	106.5000
357.88	105.8000
358.24	109.1000
358.60	113.5000
358.97	117.9000
359.33	123.3000
359.69	129.2000
360.06	134.2000
360.42	143.2000
360.78	154.3000
361.14	164.3000
361.51	182.5000
361.87	210.7000
362.23	276.8000
362.60	456.7000
362.96	1146.8000
363.32	3355.6001
363.68	4095.0000
364.05	4095.0000
364.41	4095.0000
364.77	4095.0000
365.13	4095.0000
365.50	3742.8000
365.86	1418.8000
366.22	722.8000
366.58	415.2000
366.95	269.8000
367.31	207.3000
367.67	185.1000
368.03	168.3000
368.39	162.1000
368.76	151.5000
369.12	144.5000
369.48	141.1000
369.84	136.3000
370.20	133.0000
370.57	130.2000
370.93	127.5000
371.29	125.2000
371.65	125.2000
372.01	125.3000
372.38	122.2000
372.74	121.3000
373.10	121.0000
373.46	121.1000
373.82	123.2000
374.18	119.7000
374.55	123.5000
374.91	123.2000
375.27	124.2000
375.63	121.4000
375.99	123.3000
376.35	124.1000
376.71	122.9000
377.08	127.8000
377.44	130.0000
377.80	132.3000
378.16	130.4000
378.52	130.4000
378.88	131.7000
379.24	130.4000
379.60	133.1000
379.97	135.2000
380.33	133.6000
380.69	132.1000
381.05	135.6000
381.41	140.2000
381.77	139.8000
382.13	142.3000
382.49	139.5000
382.85	137.2000
383.21	140.0000
383.57	136.7000
383.94	141.6000
384.30	141.7000
384.66	143.4000
385.02	140.7000
385.38	141.8000
385.74	143.6000
386.10	144.9000
386.46	147.2000
386.82	147.5000
387.18	145.5000
387.54	145.6000
387.90	144.4000
388.26	148.8000
388.62	152.0000
388.98	150.8000
389.34	155.2000
389.70	156.3000
390.06	147.2000
390.42	146.0000
390.78	151.1000
391.14	153.3000
391.50	148.9000
391.86	153.2000
392.22	150.9000
392.58	152.6000
392.94	143.3000
393.30	149.3000
393.66	150.8000
394.02	151.4000
394.38	144.8000
394.74	151.1000
395.10	149.5000
395.46	157.6000
395.82	152.4000
396.18	150.7000
396.54	160.7000
396.90	167.2000
397.26	163.9000
397.62	165.7000
397.98	172.5000
398.34	163.8000
398.70	165.4000
399.05	164.5000
399.41	166.3000
399.77	174.0000
400.13	180.4000
400.49	186.2000
400.85	197.3000
401.21	193.5000
401.57	224.2000
401.93	263.9000
402.29	400.6000
402.65	1272.3000
403.00	4087.1001
403.36	4095.0000
403.72	4095.0000
404.08	4095.0000
404.44	4095.0000
404.80	2799.0000
405.16	842.1000
405.52	404.9000
405.87	380.9000
406.23	530.3000
406.59	578.0000
406.95	605.1000
407.31	486.8000
407.67	352.0000
408.03	250.3000
408.38	199.8000
408.74	183.2000
409.10	174.2000
409.46	160.8000
409.82	162.4000
410.17	157.9000
410.53	149.2000
410.89	152.7000
411.25	143.3000
411.61	145.0000
411.97	148.1000
412.32	145.1000
412.68	145.5000
413.04	140.8000
413.40	132.4000
413.75	135.3000
414.11	137.8000
414.47	136.8000
414.83	143.4000
415.19	138.5000
415.54	132.3000
415.90	135.3000
416.26	130.4000
416.62	133.4000
416.97	127.7000
417.33	133.7000
417.69	132.4000
418.05	130.5000
418.40	127.8000
418.76	130.4000
419.12	134.0000
419.48	130.4000
419.83	132.1000
420.19	124.1000
420.55	124.2000
420.90	127.9000
421.26	122.9000
421.62	122.4000
421.98	125.0000
422.33	126.8000
422.69	126.0000
423.05	127.6000
423.40	121.8000
423.76	119.1000
424.12	125.6000
424.47	126.7000
424.83	126.6000
425.19	125.0000
425.54	125.9000
425.90	130.0000
426.26	132.3000
426.61	131.1000
426.97	122.1000
427.33	133.6000
427.68	139.8000
428.04	148.3000
428.40	161.3000
428.75	167.4000
429.11	160.1000
429.47	170.0000
429.82	172.6000
430.18	180.0000
430.53	177.2000
430.89	186.7000
431.25	200.4000
431.60	212.5000
431.96	231.2000
432.31	263.4000
432.67	331.2000
433.03	457.3000
433.38	734.6000
433.74	2449.7000
434.09	4095.0000
434.45	4095.0000
434.81	4095.0000
435.16	4095.0000
435.52	4095.0000
435.87	4095.0000
436.23	4095.0000
436.58	1380.3000
436.94	532.8000
437.30	339.0000
437.65	278.6000
438.01	229.5000
438.36	207.4000
438.72	191.8000
439.07	177.9000
439.43	169.1000
439.78	162.9000
440.14	156.4000
440.49	139.7000
440.85	137.5000
441.20	135.8000
441.56	130.1000
441.91	127.0000
442.27	121.2000
442.62	115.2000
442.98	113.4000
443.33	113.1000
443.69	109.8000
444.04	110.9000
444.40	105.7000
444.75	107.4000
445.11	106.9000
445.46	104.8000
445.82	103.7000
446.17	99.4000
446.53	101.4000
446.88	103.5000
447.23	97.9000
447.59	97.0000
447.94	97.1000
448.30	97.8000
448.65	96.5000
449.01	97.6000
449.36	98.2000
449.72	98.5000
450.07	100.2000
450.42	98.2000
450.78	95.0000
451.13	98.8000
451.49	96.5000
451.84	93.8000
452.19	95.5000
452.55	96.9000
452.90	96.0000
453.26	96.8000
453.61	98.2000
453.96	92.8000
454.32	94.7000
454.67	94.4000
455.02	92.7000
455.38	93.8000
455.73	92.7000
456.09	93.2000
456.44	93.5000
456.79	93.3000
457.15	92.9000
457.50	91.3000
457.85	92.5000
458.21	91.2000
458.56	92.8000
458.91	92.1000
459.27	89.3000
459.62	90.7000
459.97	91.5000
460.32	89.3000
460.68	92.1000
461.03	91.4000
461.38	92.2000
461.74	91.8000
462.09	91.0000
462.44	89.9000
462.80	90.1000
463.15	87.7000
463.50	91.1000
463.85	89.7000
464.21	89.9000
464.56	91.0000
464.91	88.5000
465.26	88.1000
465.62	88.9000
465.97	89.6000
466.32	90.4000
466.67	90.2000
467.03	88.4000
467.38	90.4000
467.73	89.9000
468.08	89.3000
468.44	89.7000
468.79	88.8000
469.14	86.5000
469.49	88.0000
469.85	91.3000
470.20	89.8000
470.55	88.4000
470.90	88.5000
471.25	88.1000
471.61	90.5000
471.96	89.1000
472.31	89.9000
472.66	89.5000
473.01	88.2000
473.36	89.2000
473.72	89.9000
474.07	90.5000
474.42	89.7000
474.77	90.5000
475.12	88.5000
475.47	89.8000
475.83	89.1000
476.18	88.6000
476.53	87.9000
476.88	89.6000
477.23	89.9000
477.58	88.6000
477.93	88.6000
478.28	88.3000
478.64	88.1000
478.99	87.8000
479.34	88.8000
479.69	88.6000
480.04	88.6000
480.39	87.3000
480.74	88.8000
481.09	88.8000
481.44	89.6000
481.79	88.3000
482.15	88.2000
482.50	89.6000
482.85	89.2000
483.20	88.4000
483.55	89.9000
483.90	90.0000
484.25	88.5000
484.60	88.5000
484.95	88.4000
485.30	88.1000
485.65	88.7000
486.00	89.1000
486.35	87.8000
486.70	87.3000
487.05	88.0000
487.40	89.0000
487.75	89.6000
488.10	86.5000
488.45	88.5000
488.80	88.2000
489.15	88.0000
489.50	91.4000
489.85	109.1000
490.20	125.0000
490.55	137.6000
490.90	130.4000
491.25	116.6000
491.60	104.9000
491.95	96.7000
492.30	90.1000
492.65	89.3000
493.00	89.0000
493.35	88.2000
493.70	87.7000
494.05	87.3000
494.40	85.7000
494.75	88.7000
495.10	86.3000
495.45	86.9000
495.80	87.3000
496.15	85.5000
496.50	87.1000
496.84	86.7000
497.19	85.1000
497.54	87.1000
497.89	85.7000
498.24	87.8000
498.59	86.9000
498.94	84.6000
499.29	86.3000
499.64	86.1000
499.99	86.4000
500.33	86.3000
500.68	85.7000
501.03	86.9000
501.38	87.1000
501.73	86.7000
502.08	86.2000
502.43	88.0000
502.77	86.7000
503.12	85.5000
503.47	84.7000
503.82	84.7000
504.17	84.4000
504.52	83.9000
504.86	84.6000
505.21	85.7000
505.56	86.4000
505.91	85.9000
506.26	85.4000
506.61	86.5000
506.95	87.5000
507.30	85.1000
507.65	85.2000
508.00	85.0000
508.35	84.7000
508.69	84.4000
509.04	85.2000
509.39	82.8000
509.74	85.0000
510.08	85.0000
510.43	84.9000
510.78	84.7000
511.13	84.7000
511.47	83.3000
511.82	85.1000
512.17	84.6000
512.52	85.0000
512.86	85.0000
513.21	84.8000
513.56	84.4000
513.91	85.5000
514.25	84.6000
514.60	85.5000
514.95	84.7000
515.30	85.9000
515.64	85.7000
515.99	84.7000
516.34	87.2000
516.68	85.9000
517.03	85.5000
517.38	85.7000
517.72	85.4000
518.07	85.2000
518.42	85.6000
518.76	86.8000
519.11	86.9000
519.46	86.7000
519.80	87.5000
520.15	87.3000
520.50	87.6000
520.84	88.5000
521.19	87.6000
521.54	86.4000
521.88	85.4000
522.23	87.3000
522.58	86.7000
522.92	86.7000
523.27	86.7000
523.61	86.5000
523.96	86.7000
524.31	85.7000
524.65	86.2000
525.00	87.0000
525.34	87.2000
525.69	87.3000
526.04	87.7000
526.38	86.2000
526.73	87.0000
527.07	87.4000
527.42	87.1000
527.76	87.3000
528.11	87.8000
528.46	86.2000
528.80	86.2000
529.15	85.7000
529.49	87.4000
529.84	87.1000
530.18	88.5000
530.53	85.7000
530.87	88.0000
531.22	89.0000
531.56	88.7000
531.91	88.3000
532.25	89.1000
532.60	89.0000
532.94	90.4000
533.29	91.3000
533.63	91.0000
533.98	90.9000
534.32	93.6000
534.67	92.5000
535.01	94.3000
535.36	95.9000
535.70	96.6000
536.05	98.5000
536.39	99.4000
536.74	102.3000
537.08	104.5000
537.43	106.6000
537.77	109.5000
538.12	112.9000
538.46	117.7000
538.80	122.4000
539.15	135.0000
539.49	148.3000
539.84	158.9000
540.18	162.9000
540.53	163.3000
540.87	165.3000
541.21	172.2000
541.56	181.2000
541.90	190.5000
542.25	205.7000
542.59	227.0000
542.93	270.1000
543.28	335.5000
543.62	486.9000
543.97	1899.1000
544.31	4095.0000
544.65	4095.0000
545.00	4095.0000
545.34	4095.0000
545.68	4095.0000
546.03	4095.0000
546.37	4095.0000
546.71	4095.0000
547.06	3870.2000
547.40	941.3000
547.74	506.9000
548.09	350.6000
548.43	264.6000
548.77	222.9000
549.12	191.0000
549.46	168.5000
549.80	160.6000
550.15	154.2000
550.49	147.6000
550.83	138.2000
551.17	133.8000
551.52	124.7000
551.86	121.0000
552.20	117.7000
552.55	112.7000
552.89	108.2000
553.23	107.4000
553.57	106.4000
553.92	104.9000
554.26	102.6000
554.60	98.9000
554.94	97.2000
555.29	95.7000
555.63	95.4000
555.97	90.7000
556.31	92.6000
556.66	91.9000
557.00	89.2000
557.34	89.2000
557.68	88.8000
558.02	88.6000
558.37	89.2000
558.71	88.3000
559.05	88.5000
559.39	88.4000
559.73	88.3000
560.08	88.2000
560.42	88.7000
560.76	87.7000
561.10	86.1000
561.44	87.3000
561.78	85.6000
562.13	84.4000
562.47	84.8000
562.81	84.1000
563.15	86.1000
563.49	84.8000
563.83	84.5000
564.17	86.0000
564.52	83.7000
564.86	86.0000
565.20	85.9000
565.54	84.5000
565.88	86.8000
566.22	87.6000
566.56	88.0000
566.90	88.1000
567.24	87.8000
567.59	86.9000
567.93	86.5000
568.27	88.0000
568.61	86.1000
568.95	87.7000
569.29	89.3000
569.63	89.4000
569.97	89.7000
570.31	91.6000
570.65	94.7000
570.99	95.0000
571.33	96.1000
571.67	95.8000
572.01	94.9000
572.35	98.7000
572.69	100.5000
573.03	103.9000
573.37	107.4000
573.71	109.5000
574.05	113.2000
574.39	124.4000
574.73	166.3000
575.07	882.7000
575.41	2460.7000
575.75	3418.8999
576.09	3880.8000
576.43	3059.3999
576.77	2333.0000
577.11	2191.1001
577.45	3260.3999
577.79	3833.8999
578.13	4095.0000
578.47	3548.5000
578.81	2567.8999
579.15	1920.4000
579.49	1314.6000
579.83	728.0000
580.17	372.2000
580.51	215.9000
580.85	155.4000
581.19	128.8000
581.53	115.7000
581.87	110.0000
582.20	105.0000
582.54	100.6000
582.88	97.3000
583.22	95.3000
583.56	93.4000
583.90	93.0000
584.24	90.6000
584.58	89.5000
584.92	90.4000
585.25	89.4000
585.59	88.3000
585.93	87.9000
586.27	89.2000
586.61	87.7000
586.95	87.8000
587.29	84.2000
587.62	84.0000
587.96	85.7000
588.30	85.5000
588.64	85.9000
588.98	84.5000
589.31	83.3000
589.65	85.1000
589.99	83.3000
590.33	84.6000
590.67	82.7000
591.01	83.5000
591.34	84.5000
591.68	83.0000
592.02	82.8000
592.36	81.7000
592.69	82.2000
593.03	82.6000
593.37	81.5000
593.71	81.0000
594.04	82.5000
594.38	81.7000
594.72	82.4000
595.06	81.6000
595.39	81.6000
595.73	81.4000
596.07	81.9000
596.41	81.6000
596.74	84.9000
597.08	82.1000
597.42	80.4000
597.76	82.3000
598.09	81.6000
598.43	81.0000
598.77	81.7000
599.10	82.6000
599.44	82.4000
599.78	81.8000
600.11	80.5000
600.45	80.8000
600.79	81.7000
601.12	83.4000
601.46	81.0000
601.80	82.4000
602.13	83.7000
602.47	81.9000
602.81	81.5000
603.14	80.5000
603.48	81.6000
603.82	78.7000
604.15	81.8000
604.49	81.7000
604.82	81.4000
605.16	81.3000
605.50	80.9000
605.83	81.8000
606.17	81.1000
606.50	82.0000
606.84	81.9000
607.18	81.1000
607.51	81.4000
607.85	81.0000
608.18	81.0000
608.52	80.5000
608.86	79.9000
609.19	81.5000
609.53	80.3000
609.86	80.0000
610.20	80.3000
610.53	80.1000
610.87	81.6000
611.20	81.1000
611.54	80.1000
611.87	81.8000
612.21	80.0000
612.54	79.8000
612.88	80.2000
613.21	80.3000
613.55	79.3000
613.88	80.3000
614.22	79.6000
614.55	79.7000
614.89	80.1000
615.22	81.0000
615.56	79.6000
615.89	79.5000
616.23	80.3000
616.56	79.5000
616.90	80.4000
617.23	79.7000
617.57	79.2000
617.90	80.2000
618.24	80.2000
618.57	78.5000
618.90	79.1000
619.24	79.9000
619.57	79.4000
619.91	79.6000
620.24	80.3000
620.58	79.6000
620.91	79.7000
621.24	78.6000
621.58	78.4000
621.91	80.5000
622.25	81.0000
622.58	80.2000
622.91	80.9000
623.25	81.1000
623.58	79.2000
623.91	78.7000
624.25	78.8000
624.58	78.8000
624.92	77.4000
625.25	77.7000
625.58	79.4000
625.92	78.6000
626.25	77.7000
626.58	78.0000
626.92	77.7000
627.25	79.7000
627.58	77.5000
627.91	78.3000
628.25	77.9000
628.58	77.7000
628.91	79.1000
629.25	79.1000
629.58	80.2000
629.91	77.3000
630.25	78.6000
630.58	78.3000
630.91	77.6000
631.24	77.5000
631.58	77.2000
631.91	77.0000
632.24	78.1000
632.57	77.9000
632.91	78.0000
633.24	77.7000
633.57	78.3000
633.90	78.0000
634.24	77.2000
634.57	78.1000
634.90	78.7000
635.23	77.9000
635.56	78.3000
635.90	76.7000
636.23	77.1000
636.56	76.7000
636.89	78.2000
637.22	77.9000
637.56	77.7000
637.89	78.6000
638.22	77.7000
638.55	79.1000
638.88	78.4000
639.21	78.5000
639.55	76.9000
639.88	74.9000
640.21	78.7000
640.54	78.6000
640.87	77.1000
641.20	77.2000
641.53	76.9000
641.87	77.1000
642.20	79.2000
642.53	78.3000
642.86	77.4000
643.19	77.3000
643.52	77.7000
643.85	77.1000
644.18	75.6000
644.51	76.2000
644.84	76.9000
645.18	78.9000
645.51	76.8000
645.84	76.3000
646.17	76.6000
646.50	77.6000
646.83	76.8000
647.16	76.2000
647.49	76.8000
647.82	78.7000
648.15	76.9000
648.48	78.5000
648.81	77.7000
649.14	75.6000
649.47	76.5000
649.80	76.6000
650.13	75.3000
650.46	75.1000
650.79	78.7000
651.12	77.6000
651.45	76.0000
651.78	77.4000
652.11	75.4000
652.44	75.8000
652.77	75.7000
653.10	76.0000
653.43	76.5000
653.76	77.7000
654.09	77.9000
654.42	77.4000
654.75	76.1000
655.08	75.2000
655.41	75.5000
655.74	75.8000
656.07	75.4000
656.39	76.6000
656.72	76.7000
657.05	76.3000
657.38	76.3000
657.71	76.4000
658.04	76.7000
658.37	76.9000
658.70	75.0000
659.03	75.8000
659.36	75.4000
659.68	78.3000
660.01	76.1000
660.34	74.3000
660.67	77.4000
661.00	77.2000
661.33	76.8000
661.66	75.6000
661.98	75.4000
662.31	76.6000
662.64	78.0000
662.97	75.8000
663.30	77.8000
663.63	77.1000
663.95	76.9000
664.28	74.8000
664.61	76.0000
664.94	76.6000
665.27	75.7000
665.59	77.8000
665.92	77.1000
666.25	79.4000
666.58	81.6000
666.91	80.2000
667.23	79.3000
667.56	78.4000
667.89	78.6000
668.22	78.7000
668.54	77.3000
668.87	77.6000
669.20	77.4000
669.53	77.2000
669.85	76.1000
670.18	76.9000
670.51	76.2000
670.83	77.7000
671.16	77.2000
671.49	77.2000
671.82	76.6000
672.14	76.4000
672.47	76.6000
672.80	75.5000
673.12	76.6000
673.45	76.6000
673.78	76.1000
674.10	77.2000
674.43	75.4000
674.76	77.3000
675.08	77.6000
675.41	75.8000
675.74	76.7000
676.06	76.8000
676.39	75.1000
676.72	75.6000
677.04	75.1000
677.37	76.7000
677.69	75.8000
678.02	76.4000
678.35	76.3000
678.67	75.1000
679.00	74.2000
679.32	75.3000
679.65	75.5000
679.98	76.7000
680.30	76.3000
680.63	76.0000
680.95	76.1000
681.28	75.4000
681.60	75.7000
681.93	76.6000
682.26	74.7000
682.58	75.0000
682.91	75.7000
683.23	76.9000
683.56	75.8000
683.88	75.7000
684.21	78.4000
684.53	77.3000
684.86	76.7000
685.18	75.2000
685.51	74.6000
685.83	75.8000
686.16	77.4000
686.48	77.0000
686.81	77.3000
687.13	77.4000
687.46	78.2000
687.78	76.4000
688.11	77.8000
688.43	76.1000
688.76	75.8000
689.08	79.2000
689.41	81.8000
689.73	88.4000
690.05	91.3000
690.38	89.4000
690.70	86.0000
691.03	83.2000
691.35	81.7000
691.68	80.4000
692.00	79.8000
692.32	79.9000
692.65	78.4000
692.97	77.9000
693.29	78.0000
693.62	77.2000
693.94	79.7000
694.27	82.0000
694.59	87.1000
694.91	173.8000
695.24	335.2000
695.56	461.5000
695.88	535.9000
696.21	473.4000
696.53	372.8000
696.85	312.8000
697.18	264.9000
697.50	218.9000
697.82	174.4000
698.15	130.0000
698.47	101.6000
698.79	89.5000
699.12	81.9000
699.44	79.8000
699.76	79.4000
700.09	77.0000
700.41	77.5000
700.73	77.5000
701.05	76.9000
701.38	77.2000
701.70	76.9000
702.02	78.6000
702.34	78.4000
702.67	78.6000
702.99	77.3000
703.31	77.0000
703.63	75.3000
703.96	74.4000
704.28	75.9000
704.60	77.3000
704.92	80.4000
705.25	111.3000
705.57	142.4000
705.89	166.5000
706.21	173.0000
706.53	153.7000
706.86	134.8000
707.18	123.1000
707.50	114.1000
707.82	104.5000
708.14	96.0000
708.46	86.8000
708.79	81.7000
709.11	78.1000
709.43	77.7000
709.75	75.8000
710.07	75.8000
710.39	75.3000
710.71	76.2000
711.04	76.2000
711.36	75.1000
711.68	74.9000
712.00	74.4000
712.32	76.2000
712.64	74.3000
712.96	75.9000
713.28	81.8000
713.60	84.2000
713.92	88.3000
714.24	89.0000
714.57	86.6000
714.89	83.4000
715.21	81.1000
715.53	78.6000
715.85	78.9000
716.17	79.3000
716.49	77.3000
716.81	76.6000
717.13	74.9000
717.45	74.9000
717.77	75.9000
718.09	74.9000
718.41	77.3000
718.73	75.6000
719.05	75.0000
719.37	75.5000
719.69	76.8000
720.01	76.2000
720.33	76.3000
720.65	75.6000
720.97	76.2000
721.29	75.7000
721.61	74.4000
721.93	74.9000
722.25	74.3000
722.57	75.3000
722.89	74.2000
723.21	75.5000
723.52	75.8000
723.84	76.3000
724.16	75.1000
724.48	74.0000
724.80	75.3000
725.12	76.3000
725.44	77.5000
725.76	95.8000
726.08	127.5000
726.40	150.9000
726.72	168.1000
727.03	157.0000
727.35	135.9000
727.67	121.7000
727.99	112.2000
728.31	104.5000
728.63	96.6000
728.95	90.7000
729.26	84.7000
729.58	79.8000
729.90	78.6000
730.22	77.4000
730.54	75.0000
730.86	77.3000
731.17	73.5000
731.49	74.9000
731.81	75.7000
732.13	75.5000
732.45	76.4000
732.76	75.9000
733.08	75.5000
733.40	76.3000
733.72	74.8000
734.03	76.2000
734.35	76.4000
734.67	76.4000
734.99	74.6000
735.30	76.8000
735.62	76.7000
735.94	76.8000
736.26	75.0000
736.57	79.7000
736.89	110.2000
737.21	157.9000
737.53	201.4000
737.84	225.6000
738.16	208.3000
738.48	175.1000
738.79	148.0000
739.11	130.8000
739.43	119.4000
739.74	114.0000
740.06	102.9000
740.38	92.6000
740.69	84.4000
741.01	81.7000
741.33	78.2000
741.64	76.8000
741.96	74.2000
742.28	76.4000
742.59	76.6000
742.91	76.1000
743.23	76.0000
743.54	77.3000
743.86	77.9000
744.17	78.2000
744.49	76.9000
744.81	75.7000
745.12	75.3000
745.44	76.7000
745.75	76.9000
746.07	78.1000
746.38	78.2000
746.70	78.0000
747.02	77.5000
747.33	77.1000
747.65	77.1000
747.96	78.4000
748.28	79.3000
748.59	86.6000
748.91	134.6000
749.22	222.9000
749.54	298.7000
749.85	350.6000
750.17	358.0000
750.48	331.5000
750.80	307.0000
751.11	283.6000
751.43	240.0000
751.74	205.5000
752.06	179.2000
752.37	154.0000
752.69	131.7000
753.00	115.5000
753.32	104.1000
753.63	94.4000
753.95	87.8000
754.26	82.8000
754.58	82.2000
754.89	81.7000
755.20	80.0000
755.52	81.5000
755.83	83.3000
756.15	83.5000
756.46	85.3000
756.78	88.7000
757.09	92.5000
757.40	96.6000
757.72	102.6000
758.03	104.6000
758.34	106.9000
758.66	113.8000
758.97	125.2000
759.29	150.5000
759.60	316.7000
759.91	913.4000
760.23	1345.6000
760.54	1578.1000
760.85	1565.2000
761.17	1175.7000
761.48	866.1000
761.79	683.0000
762.11	695.1000
762.42	874.8000
762.73	973.9000
763.05	967.7000
763.36	779.1000
763.67	545.9000
763.98	399.6000
764.30	333.0000
764.61	305.3000
764.92	280.6000
765.23	252.0000
765.55	203.5000
765.86	153.6000
766.17	120.3000
766.48	101.4000
766.80	91.3000
767.11	87.0000
767.42	85.0000
767.73	80.7000
768.05	79.1000
768.36	79.4000
768.67	80.3000
768.98	78.2000
769.29	79.5000
769.61	78.4000
769.92	77.3000
770.23	79.3000
770.54	81.8000
770.85	110.8000
771.17	229.8000
771.48	340.9000
771.79	410.8000
772.10	411.0000
772.41	319.9000
772.72	247.5000
773.03	211.5000
773.35	192.1000
773.66	177.9000
773.97	170.8000
774.28	155.6000
774.59	133.6000
774.90	110.0000
775.21	94.3000
775.52	87.0000
775.83	82.0000
776.15	78.5000
776.46	77.7000
776.77	76.3000
777.08	74.4000
777.39	74.5000
777.70	76.0000
778.01	75.1000
778.32	75.0000
778.63	76.0000
778.94	75.7000
779.25	76.2000
779.56	74.7000
779.87	73.9000
780.18	74.2000
780.49	73.1000
780.80	74.4000
781.11	75.4000
781.42	75.4000
781.73	76.7000
782.04	75.5000
782.35	73.0000
782.66	74.3000
782.97	75.4000
783.28	73.2000
783.59	74.2000
783.90	74.4000
784.21	74.1000
784.52	74.0000
784.83	75.3000
785.14	75.3000
785.45	73.6000
785.76	75.7000
786.06	73.8000
786.37	73.2000
786.68	73.8000
786.99	74.3000
787.30	73.5000
787.61	73.5000
787.92	74.8000
788.23	73.3000
788.54	73.2000
788.84	73.0000
789.15	74.8000
789.46	74.1000
789.77	75.7000
790.08	74.8000
790.39	74.1000
790.70	74.6000
791.00	73.9000
791.31	74.2000
791.62	74.0000
791.93	74.1000
792.24	75.7000
792.54	74.1000
792.85	74.9000
793.16	77.3000
793.47	101.5000
793.78	132.3000
794.08	154.0000
794.39	162.4000
794.70	150.4000
795.01	131.3000
795.31	121.8000
795.62	113.0000
795.93	110.2000
796.24	107.0000
796.54	107.4000
796.85	101.6000
797.16	95.7000
797.47	88.8000
797.77	84.4000
798.08	79.7000
798.39	78.3000
798.69	76.7000
799.00	79.1000
799.31	98.1000
799.62	123.1000
799.92	140.6000
800.23	170.2000
800.54	178.1000
800.84	176.6000
801.15	174.2000
801.46	157.2000
801.76	142.7000
802.07	134.5000
802.37	127.1000
802.68	122.8000
802.99	116.8000
803.29	108.0000
803.60	102.9000
803.91	94.2000
804.21	87.5000
804.52	82.0000
804.82	77.7000
805.13	77.8000
805.44	75.3000
805.74	73.6000
806.05	74.3000
806.35	74.0000
806.66	74.5000
806.96	74.9000
807.27	74.5000
807.57	76.3000
807.88	75.6000
808.19	74.8000
808.49	75.4000
808.80	81.9000
809.10	104.5000
809.41	129.6000
809.71	148.0000
810.02	171.6000
810.32	211.3000
810.63	250.6000
810.93	280.1000
811.24	284.1000
811.54	258.4000
811.85	227.5000
812.15	210.0000
812.45	196.3000
812.76	183.4000
813.06	168.6000
813.37	158.2000
813.67	149.0000
813.98	134.8000
814.28	116.1000
814.58	100.2000
814.89	88.1000
815.19	82.3000
815.50	78.7000
815.80	77.7000
816.11	76.2000
816.41	76.0000
816.71	74.4000
817.02	73.7000
817.32	75.1000
817.62	73.8000
817.93	75.2000
818.23	74.2000
818.53	74.7000
818.84	73.9000
819.14	73.0000
819.44	72.7000
819.75	71.8000
820.05	72.8000
820.35	73.6000
820.66	73.6000
820.96	72.9000
821.26	73.5000
821.57	74.9000
821.87	74.0000
822.17	75.0000
822.48	74.4000
822.78	74.5000
823.08	74.1000
823.38	73.0000
823.69	74.4000
823.99	74.8000
824.29	74.7000
824.59	76.1000
824.90	80.9000
825.20	104.4000
825.50	137.7000
825.80	159.5000
826.10	176.5000
826.41	172.6000
826.71	157.6000
827.01	150.3000
827.31	142.9000
827.61	136.4000
827.92	132.4000
828.22	128.4000
828.52	127.3000
828.82	122.4000
829.12	114.6000
829.42	105.1000
829.73	92.6000
830.03	85.1000
830.33	78.8000
830.63	76.8000
830.93	75.2000
831.23	75.5000
831.53	74.6000
831.83	73.8000
832.14	73.4000
832.44	76.2000
832.74	74.7000
833.04	73.0000
833.34	72.7000
833.64	73.1000
833.94	72.6000
834.24	74.4000
834.54	72.6000
834.84	73.8000
835.14	73.8000
835.44	72.4000
835.74	73.2000
836.04	73.9000
836.34	73.4000
836.64	72.3000
836.95	74.0000
837.25	74.9000
837.55	72.7000
837.85	70.9000
838.15	73.5000
838.45	73.7000
838.74	74.3000
839.04	74.2000
839.34	77.3000
839.64	82.3000
839.94	96.5000
840.24	107.3000
840.54	114.8000
840.84	117.3000
841.14	117.0000
841.44	127.6000
841.74	139.1000
842.04	147.7000
842.34	155.1000
842.64	151.1000
842.94	147.4000
843.24	140.3000
843.53	135.4000
843.83	129.4000
844.13	123.0000
844.43	116.4000
844.73	110.0000
845.03	107.8000
845.33	103.1000
845.63	94.6000
845.92	86.1000
846.22	80.5000
846.52	79.0000
846.82	76.7000
847.12	73.9000
847.42	75.0000
847.71	75.1000
848.01	75.1000
848.31	75.0000
848.61	73.6000
848.91	73.6000
849.20	73.8000
849.50	72.5000
849.80	74.0000
850.10	74.1000
850.39	72.2000
850.69	74.8000
850.99	75.5000
851.29	79.4000
851.59	85.6000
851.88	88.1000
852.18	90.5000
852.48	89.7000
852.77	87.9000
853.07	86.3000
853.37	86.8000
853.67	86.9000
853.96	84.8000
854.26	85.8000
854.56	86.1000
854.85	84.3000
855.15	84.0000
855.45	79.7000
855.74	75.7000
856.04	74.9000
856.34	75.4000
856.63	73.9000
856.93	73.7000
857.23	73.6000
857.52	75.4000
857.82	72.8000
858.11	73.4000
858.41	74.7000
858.71	73.4000
859.00	72.6000
859.30	72.8000
859.59	73.4000
859.89	73.3000
860.19	71.2000
860.48	73.2000
860.78	73.7000
861.07	72.9000
861.37	73.3000
861.66	72.5000
861.96	72.3000
862.26	72.7000
862.55	73.2000
862.85	73.6000
863.14	73.1000
863.44	73.5000
863.73	73.4000
864.03	70.9000
864.32	71.5000
864.62	73.9000
864.91	71.7000
865.21	73.0000
865.50	73.0000
865.80	74.5000
866.09	74.0000
866.39	72.9000
866.68	73.6000
866.97	75.4000
867.27	74.5000
867.56	75.2000
867.86	76.2000
868.15	75.5000
868.45	75.6000
868.74	74.6000
869.03	73.7000
869.33	74.2000
869.62	74.4000
869.92	76.1000
870.21	74.0000
870.50	74.1000
870.80	73.8000
871.09	73.4000
871.39	73.0000
871.68	73.2000
871.97	72.4000
872.27	72.4000
872.56	73.0000
872.85	72.4000
873.15	72.8000
873.44	73.7000
873.73	73.5000
874.03	72.7000
874.32	73.6000
874.61	73.4000
874.90	71.7000
875.20	72.2000
875.49	74.1000
875.78	72.9000